# Input file       =  1180149854.141643_cleaned.dat
# Candidate        =  PSR_0332+5434
# Telescope        =  AR
# Epoch_topo       =  57903.141622009760
# Epoch_bary       =  N/A
# T_sample         =  0.002
# Data Folded      =  7208960
# Data Avg         =  0.0383952712365432
# Data StdDev      =  1.00018073618721 
# Profile Bins     =  512
# Profile Avg      =  540.570895146976 
# Profile StdDev   =  118.680621800541 
# Reduced chi-sqr  =  0.885
# Prob(Noise)      <  0.971   (~0.0 sigma)
# P_topo (ms)      =  714.518393687938  +/- 0.000334
# P'_topo (s/s)    =  -0                +/- 1.79e-10
# P''_topo (s/s^2) =  0                 +/- 8.06e-14
# P_bary (ms)      =  N/A
# P'_bary (s/s)    =  N/A
# P''_bary (s/s^2) =  N/A
# P_orb (s)        =  N/A
# asin(i)/c (s)    =  N/A
# eccentricity     =  N/A
# w (rad)          =  N/A
# T_peri           =  N/A
######################################################
   0  455.4739
   1  552.0687
   2  624.3774
   3  427.8048
   4  451.2904
   5  461.3877
   6  521.0354
   7  408.4032
   8  415.5495
   9  508.7315
  10  464.4701
  11  446.2582
  12  516.3798
  13  564.2939
  14  583.8176
  15  552.1804
  16  523.3666
  17  500.5282
  18  492.9844
  19  502.3315
  20  503.0292
  21  563.7109
  22  427.985
  23  511.204
  24  556.3848
  25  586.8193
  26  599.0742
  27  536.2571
  28  522.3874
  29  526.0786
  30  575.7241
  31  498.6187
  32  478.0002
  33  536.1127
  34  425.1943
  35  443.617
  36  497.4958
  37  431.5281
  38  406.3835
  39  437.6725
  40  468.8773
  41  459.0339
  42  537.3558
  43  565.1762
  44  623.5801
  45  565.3397
  46  503.8199
  47  440.6041
  48  462.0185
  49  534.2065
  50  375.3998
  51  438.9997
  52  446.5533
  53  478.125
  54  540.1901
  55  585.3314
  56  576.5759
  57  508.6252
  58  456.4436
  59  463.8856
  60  485.3317
  61  549.7112
  62  571.0764
  63  577.7919
  64  499.299
  65  553.8226
  66  498.7432
  67  468.5211
  68  530.8835
  69  528.8655
  70  438.0071
  71  292.7958
  72  385.3718
  73  535.562
  74  574.0089
  75  580.6266
  76  540.7563
  77  546.8229
  78  519.2654
  79  460.8253
  80  335.6735
  81  387.0274
  82  421.1765
  83  410.8044
  84  534.0687
  85  598.3824
  86  524.4723
  87  458.078
  88  481.9153
  89  419.6259
  90  533.6419
  91  601.4032
  92  693.1277
  93  616.9262
  94  399.249
  95  526.6634
  96  458.95
  97  549.4006
  98  552.9127
  99  465.0045
 100  495.3127
 101  473.4173
 102  524.5698
 103  541.1759
 104  630.9341
 105  637.3484
 106  702.7629
 107  629.2939
 108  606.1935
 109  585.9702
 110  513.7608
 111  530.6708
 112  583.4484
 113  655.9496
 114  611.6329
 115  640.1143
 116  672.8998
 117  636.3278
 118  611.174
 119  676.8553
 120  771.7318
 121  773.0777
 122  841.5864
 123  879.6952
 124  836.7253
 125  765.5198
 126  663.3289
 127  504.1875
 128  536.2231
 129  515.5832
 130  538.3021
 131  442.8954
 132  519.8632
 133  498.9238
 134  475.4594
 135  503.2087
 136  481.7886
 137  615.762
 138  492.1022
 139  438.5757
 140  399.8027
 141  543.9804
 142  559.5375
 143  521.4061
 144  419.1583
 145  512.1821
 146  477.4084
 147  487.2097
 148  569.2887
 149  489.3192
 150  504.6014
 151  465.8863
 152  531.2498
 153  580.0308
 154  560.9318
 155  529.9319
 156  471.3647
 157  540.4876
 158  554.7148
 159  584.6082
 160  584.2857
 161  546.5968
 162  548.5377
 163  601.5196
 164  589.5277
 165  435.1839
 166  488.5532
 167  441.1041
 168  428.6819
 169  519.2634
 170  554.1919
 171  459.322
 172  561.8124
 173  715.6091
 174  678.6727
 175  560.8906
 176  563.4764
 177  563.1398
 178  529.9472
 179  445.9087
 180  482.1172
 181  537.2711
 182  452.684
 183  518.6458
 184  540.5534
 185  456.857
 186  527.5237
 187  499.062
 188  533.3005
 189  550.0048
 190  626.6088
 191  588.2786
 192  576.7586
 193  537.9187
 194  562.6396
 195  547.0607
 196  576.7309
 197  425.5341
 198  423.1656
 199  536.0083
 200  548.8627
 201  483.1098
 202  457.5028
 203  400.6592
 204  407.8172
 205  426.3316
 206  554.5243
 207  558.7011
 208  507.3085
 209  525.6071
 210  528.7379
 211  477.3792
 212  586.4588
 213  614.978
 214  589.1988
 215  552.261
 216  552.3358
 217  589.5045
 218  504.6173
 219  460.4923
 220  564.7964
 221  518.262
 222  546.3174
 223  575.0759
 224  600.4133
 225  406.4532
 226  438.865
 227  509.1866
 228  514.894
 229  476.5123
 230  534.3321
 231  429.668
 232  478.7753
 233  537.9428
 234  546.2174
 235  441.2317
 236  433.6817
 237  545.1912
 238  617.386
 239  520.7286
 240  542.3343
 241  609.6971
 242  677.3987
 243  582.7936
 244  579.5208
 245  601.7534
 246  573.3317
 247  584.2631
 248  547.8412
 249  685.56
 250  676.0927
 251  600.8201
 252  441.8089
 253  442.3658
 254  514.7812
 255  597.022
 256  601.4034
 257  562.1401
 258  635.7224
 259  630.0331
 260  572.5428
 261  446.0782
 262  549.7574
 263  620.4256
 264  540.832
 265  587.5145
 266  672.585
 267  608.2207
 268  582.9712
 269  445.4612
 270  550.5841
 271  589.2875
 272  488.1547
 273  480.4554
 274  546.2438
 275  650.4619
 276  562.2972
 277  571.8472
 278  467.178
 279  496.473
 280  514.8105
 281  518.9159
 282  466.1479
 283  534.942
 284  456.78
 285  516.3157
 286  515.8823
 287  444.2107
 288  424.1918
 289  526.6115
 290  518.9696
 291  588.1762
 292  615.8785
 293  592.2603
 294  570.2399
 295  532.1983
 296  462.2567
 297  399.0904
 298  537.4692
 299  589.7006
 300  571.4178
 301  560.4526
 302  624.1639
 303  549.2472
 304  454.205
 305  522.3572
 306  681.412
 307  703.3311
 308  613.7458
 309  590.6716
 310  560.0496
 311  540.7266
 312  572.4139
 313  547.6252
 314  531.3873
 315  477.3705
 316  521.4039
 317  519.2094
 318  506.4897
 319  528.3717
 320  518.2292
 321  576.4156
 322  553.4468
 323  607.1867
 324  610.6917
 325  487.2609
 326  531.9667
 327  591.9803
 328  527.3631
 329  499.7199
 330  571.5399
 331  694.4966
 332  632.0493
 333  539.914
 334  475.3405
 335  533.8849
 336  535.7917
 337  553.6692
 338  612.5607
 339  599.2648
 340  585.9586
 341  549.7706
 342  745.3262
 343  659.5082
 344  683.9617
 345  630.296
 346  571.3206
 347  633.2462
 348  637.5866
 349  667.899
 350  545.5302
 351  567.5271
 352  533.0845
 353  522.6978
 354  388.7438
 355  400.2972
 356  456.4797
 357  500.5461
 358  610.7918
 359  540.6614
 360  564.4378
 361  540.3821
 362  447.1058
 363  451.3973
 364  504.214
 365  504.9797
 366  560.2331
 367  492.1781
 368  403.9483
 369  388.0442
 370  483.917
 371  500.6743
 372  455.4266
 373  378.0863
 374  529.2869
 375  582.5638
 376  498.3023
 377  380.3252
 378  431.8066
 379  491.7994
 380  348.685
 381  429.8488
 382  410.5742
 383  472.9561
 384  556.0845
 385  592.1998
 386  583.9696
 387  610.2369
 388  565.804
 389  548.2629
 390  424.0818
 391  375.022
 392  498.4496
 393  558.2918
 394  467.5074
 395  471.9388
 396  449.7046
 397  509.8105
 398  590.4863
 399  629.4924
 400  638.865
 401  492.4779
 402  479.7257
 403  390.0901
 404  470.9473
 405  620.3142
 406  729.4166
 407  583.6694
 408  489.7309
 409  544.2031
 410  499.3853
 411  519.6104
 412  551.957
 413  634.4995
 414  553.4726
 415  433.4834
 416  516.317
 417  549.2354
 418  661.499
 419  566.7966
 420  517.9077
 421  550.5532
 422  573.7809
 423  605.6929
 424  679.7145
 425  744.4333
 426  606.9621
 427  570.3026
 428  547.4979
 429  630.2543
 430  618.0331
 431  509.7684
 432  600.9095
 433  534.4745
 434  602.4367
 435  442.937
 436  503.8834
 437  615.9421
 438  521.3552
 439  461.7578
 440  649.9828
 441  649.6809
 442  481.5117
 443  361.9895
 444  484.9804
 445  514.6102
 446  517.476
 447  546.5881
 448  513.5889
 449  618.9993
 450  726.9565
 451  498.8845
 452  466.4314
 453  518.2982
 454  555.5054
 455  533.1042
 456  595.7977
 457  611.1292
 458  616.2592
 459  662.6903
 460  676.0951
 461  574.98
 462  612.3665
 463  570.2817
 464  458.189
 465  524.9861
 466  561.5267
 467  629.5595
 468  639.124
 469  597.0777
 470  559.4054
 471  595.0875
 472  556.5186
 473  572.7202
 474  660.6343
 475  637.8336
 476  568.0554
 477  557.5959
 478  722.9365
 479  662.1255
 480  675.9945
 481  687.016
 482  701.8032
 483  674.225
 484  592.0751
 485  555.1132
 486  670.9944
 487  653.2254
 488  592.843
 489  588.96
 490  584.8741
 491  694.326
 492  598.7653
 493  560.6111
 494  521.9039
 495  547.644
 496  440.6123
 497  455.9698
 498  485.0184
 499  644.0215
 500  623.5153
 501  508.5825
 502  617.024
 503  720.981
 504  615.3871
 505  540.5655
 506  492.6005
 507  403.5942
 508  405.5306
 509  422.8844
 510  561.7708
 511  516.868
