# Input file       =  1180149854.141643_cleaned.dat
# Candidate        =  PSR_0332+5434
# Telescope        =  AR
# Epoch_topo       =  57903.141622009760
# Epoch_bary       =  N/A
# T_sample         =  0.002
# Data Folded      =  7208960
# Data Avg         =  0.0383952712365432
# Data StdDev      =  1.00018073618721 
# Profile Bins     =  512
# Profile Avg      =  540.570922429134 
# Profile StdDev   =  118.680621800541 
# Reduced chi-sqr  =  0.884
# Prob(Noise)      <  0.972   (~0.0 sigma)
# P_topo (ms)      =  714.518392542324  +/- 0.000328
# P'_topo (s/s)    =  -0                +/- 1.76e-10
# P''_topo (s/s^2) =  0                 +/- 7.92e-14
# P_bary (ms)      =  N/A
# P'_bary (s/s)    =  N/A
# P''_bary (s/s^2) =  N/A
# P_orb (s)        =  N/A
# asin(i)/c (s)    =  N/A
# eccentricity     =  N/A
# w (rad)          =  N/A
# T_peri           =  N/A
######################################################
   0  869.7569
   1  795.7783
   2  739.6597
   3  575.3619
   4  502.2479
   5  547.0485
   6  518.5728
   7  515.8933
   8  437.7203
   9  548.0811
  10  458.8748
  11  506.8999
  12  468.4749
  13  550.4333
  14  595.3881
  15  442.0865
  16  417.5172
  17  437.978
  18  591.9482
  19  548.5706
  20  463.9918
  21  445.6257
  22  523.2158
  23  456.5179
  24  539.5593
  25  532.0749
  26  491.748
  27  482.3325
  28  479.1495
  29  567.3394
  30  580.9192
  31  547.6638
  32  507.5155
  33  468.8636
  34  584.2357
  35  542.2183
  36  608.4567
  37  554.1046
  38  549.9727
  39  551.2347
  40  640.856
  41  490.4532
  42  466.3979
  43  466.9691
  44  425.9938
  45  456.0514
  46  563.3783
  47  506.6393
  48  480.6174
  49  660.5812
  50  706.9884
  51  632.3241
  52  523.8948
  53  589.346
  54  523.8878
  55  509.1307
  56  437.624
  57  544.4699
  58  506.4556
  59  439.5052
  60  571.5033
  61  467.7832
  62  505.8667
  63  499.5499
  64  530.3204
  65  526.424
  66  592.8465
  67  611.0245
  68  588.752
  69  573.8317
  70  537.274
  71  546.1024
  72  564.212
  73  530.2474
  74  376.7256
  75  487.8467
  76  556.2178
  77  519.1476
  78  481.7223
  79  414.489
  80  401.9286
  81  413.1971
  82  475.9404
  83  576.3467
  84  524.9865
  85  512.9127
  86  535.8907
  87  502.3935
  88  515.0738
  89  624.2104
  90  607.3312
  91  561.5241
  92  558.6985
  93  563.3256
  94  568.3283
  95  452.1725
  96  506.4915
  97  569.3022
  98  503.1098
  99  583.5005
 100  590.9597
 101  528.3118
 102  368.3842
 103  478.711
 104  534.9294
 105  474.3394
 106  523.4146
 107  471.0374
 108  453.5276
 109  500.5788
 110  557.3591
 111  513.0165
 112  412.5854
 113  481.7223
 114  596.4414
 115  576.1947
 116  511.2307
 117  572.3232
 118  642.7236
 119  650.1262
 120  565.662
 121  598.9415
 122  590.8657
 123  580.7485
 124  559.7327
 125  594.8099
 126  705.132
 127  644.4718
 128  545.1387
 129  412.8278
 130  480.42
 131  547.6775
 132  617.0706
 133  563.9658
 134  603.8879
 135  629.2598
 136  630.4929
 137  480.8873
 138  479.2392
 139  597.5114
 140  608.7441
 141  520.0894
 142  657.4034
 143  640.6959
 144  608.0099
 145  520.0879
 146  452.0935
 147  607.5835
 148  522.5844
 149  490.2856
 150  484.8551
 151  631.6078
 152  598.0753
 153  573.9951
 154  514.0968
 155  493.6161
 156  486.7746
 157  535.7157
 158  471.8083
 159  510.9801
 160  502.4107
 161  472.6893
 162  534.9883
 163  490.6004
 164  399.289
 165  481.5118
 166  521.0197
 167  546.5704
 168  615.3286
 169  598.1541
 170  593.5393
 171  543.4351
 172  520.3952
 173  406.3846
 174  454.1572
 175  575.9698
 176  583.3839
 177  553.3827
 178  606.6885
 179  597.0759
 180  502.1868
 181  445.8235
 182  600.7624
 183  714.9111
 184  659.3611
 185  621.0477
 186  565.7578
 187  558.7888
 188  539.2083
 189  576.5432
 190  547.953
 191  497.6627
 192  490.5083
 193  526.1158
 194  516.6488
 195  499.8871
 196  531.0801
 197  533.4135
 198  586.6104
 199  552.5869
 200  642.6702
 201  525.4628
 202  511.0046
 203  566.0877
 204  580.0995
 205  499.5671
 206  511.2818
 207  649.1294
 208  677.6079
 209  583.7104
 210  502.3789
 211  493.6859
 212  552.7529
 213  522.4706
 214  591.8773
 215  609.0101
 216  600.0905
 217  555.2751
 218  631.3571
 219  742.9758
 220  644.9191
 221  702.8008
 222  564.4453
 223  598.7333
 224  621.6846
 225  670.2928
 226  612.8112
 227  549.6888
 228  561.155
 229  529.4133
 230  458.0785
 231  368.6733
 232  445.3677
 233  467.9251
 234  550.2594
 235  604.0462
 236  508.1932
 237  617.2292
 238  450.2423
 239  460.4757
 240  455.9974
 241  540.6296
 242  517.0306
 243  542.1893
 244  441.0332
 245  386.2531
 246  422.2541
 247  506.0974
 248  480.6401
 249  423.8301
 250  428.5705
 251  580.7772
 252  562.4182
 253  430.3575
 254  374.3077
 255  485.6752
 256  412.8238
 257  377.5319
 258  427.0751
 259  425.6867
 260  510.1992
 261  598.1599
 262  572.0979
 263  609.9383
 264  592.7901
 265  561.1182
 266  505.3655
 267  378.0718
 268  414.1006
 269  551.4647
 270  516.559
 271  449.6486
 272  474.9499
 273  441.9564
 274  562.1011
 275  607.2081
 276  664.2793
 277  573.8115
 278  471.4811
 279  453.6505
 280  388.4305
 281  546.9978
 282  672.6731
 283  693.7075
 284  511.7989
 285  524.8979
 286  533.6556
 287  494.4168
 288  537.8505
 289  579.2042
 290  631.0569
 291  489.1015
 292  462.3958
 293  532.9191
 294  591.7426
 295  630.6561
 296  531.5259
 297  525.2294
 298  573.5087
 299  586.5988
 300  634.2222
 301  718.4075
 302  696.3047
 303  571.4238
 304  553.951
 305  575.1509
 306  642.4877
 307  566.8847
 308  534.7686
 309  585.7332
 310  546.5182
 311  571.5867
 312  416.4807
 313  591.2569
 314  593.177
 315  465.2672
 316  531.4783
 317  688.3312
 318  577.8175
 319  402.0066
 320  402.503
 321  515.92
 322  515.2127
 323  532.4507
 324  541.9246
 325  522.058
 326  723.2493
 327  631.6384
 328  463.5628
 329  466.4365
 330  554.9489
 331  527.1113
 332  581.0764
 333  586.8397
 334  626.4755
 335  622.2002
 336  695.6847
 337  630.4446
 338  577.7416
 339  617.4342
 340  500.386
 341  467.5563
 342  544.9436
 343  599.0765
 344  635.1747
 345  633.9987
 346  561.5219
 347  577.1332
 348  584.9224
 349  538.9988
 350  628.1994
 351  657.6356
 352  607.5049
 353  549.3979
 354  626.0953
 355  718.376
 356  636.9207
 357  703.992
 358  697.0574
 359  692.6876
 360  641.1841
 361  551.2741
 362  614.7291
 363  677.0261
 364  613.3433
 365  601.3544
 366  567.7955
 367  653.4906
 368  652.4532
 369  584.3652
 370  531.911
 371  542.6545
 372  485.1108
 373  445.9167
 374  464.8591
 375  551.2953
 376  674.9995
 377  551.8357
 378  542.6046
 379  688.1818
 380  676.802
 381  574.8245
 382  519.9042
 383  445.4835
 384  401.8052
 385  397.5536
 386  485.8267
 387  571.9812
 388  480.1705
 389  476.2128
 390  614.756
 391  528.3041
 392  423.9034
 393  455.0603
 394  508.6779
 395  468.0084
 396  391.8049
 397  460.0735
 398  513.5493
 399  433.1212
 400  485.6719
 401  541.127
 402  570.3878
 403  584.5599
 404  513.6746
 405  538.9417
 406  478.9472
 407  514.4313
 408  478.9604
 409  553.5765
 410  497.6301
 411  441.0249
 412  552.0914
 413  572.5884
 414  596.2398
 415  572.9257
 416  505.526
 417  537.7264
 418  547.0746
 419  565.9797
 420  449.5669
 421  531.1477
 422  484.723
 423  417.3326
 424  475.4315
 425  477.0845
 426  398.9287
 427  430.4524
 428  443.9021
 429  464.5292
 430  479.6362
 431  566.7326
 432  598.8807
 433  611.5294
 434  527.795
 435  478.6354
 436  416.7896
 437  532.1931
 438  456.7752
 439  382.5277
 440  459.5327
 441  441.7454
 442  513.5971
 443  563.8221
 444  592.5002
 445  538.0719
 446  475.3828
 447  467.7621
 448  465.6255
 449  520.846
 450  546.429
 451  595.8262
 452  546.5262
 453  511.5703
 454  548.9989
 455  453.2952
 456  505.2309
 457  543.3871
 458  494.0175
 459  365.1249
 460  292.703
 461  482.6842
 462  555.2375
 463  583.7635
 464  570.597
 465  526.3991
 466  540.4944
 467  502.6561
 468  404.3352
 469  345.6808
 470  414.6517
 471  391.8418
 472  461.644
 473  567.8961
 474  596.2451
 475  466.5388
 476  493.0037
 477  432.4977
 478  469.1091
 479  565.8319
 480  647.5477
 481  691.3297
 482  492.8058
 483  437.4395
 484  524.2453
 485  459.5945
 486  596.3109
 487  499.0552
 488  482.4954
 489  471.9217
 490  497.0394
 491  541.8521
 492  572.248
 493  646.5687
 494  653.5208
 495  695.7365
 496  606.5415
 497  607.8917
 498  539.8251
 499  516.0195
 500  540.7202
 501  626.1221
 502  639.4576
 503  619.2497
 504  667.9279
 505  666.1331
 506  618.4859
 507  618.4974
 508  735.7535
 509  769.4249
 510  789.9986
 511  871.6459
