# Input file       =  1183869605.095054_cleaned.dat
# Candidate        =  PSR_0332+5434
# Telescope        =  AR
# Epoch_topo       =  57946.194295081645
# Epoch_bary       =  N/A
# T_sample         =  0.002
# Data Folded      =  7340032
# Data Avg         =  0.0423244953539674
# Data StdDev      =  1.00021923438954 
# Profile Bins     =  512
# Profile Avg      =  606.855862629477 
# Profile StdDev   =  119.759285975904 
# Reduced chi-sqr  =  1.096
# Prob(Noise)      <  0.0654   (~1.5 sigma)
# P_topo (ms)      =  714.480827081776  +/- 0.000156
# P'_topo (s/s)    =  -0                +/- 8.22e-11
# P''_topo (s/s^2) =  0                 +/- 3.63e-14
# P_bary (ms)      =  N/A
# P'_bary (s/s)    =  N/A
# P''_bary (s/s^2) =  N/A
# P_orb (s)        =  N/A
# asin(i)/c (s)    =  N/A
# eccentricity     =  N/A
# w (rad)          =  N/A
# T_peri           =  N/A
######################################################
   0  1089.399
   1  999.1024
   2  933.1536
   3  888.049
   4  737.6857
   5  626.6313
   6  607.6236
   7  562.4771
   8  570.7938
   9  557.1543
  10  669.0782
  11  623.6307
  12  629.0289
  13  661.2201
  14  689.0477
  15  624.9612
  16  621.9536
  17  583.2675
  18  568.2441
  19  630.8269
  20  580.0051
  21  552.2859
  22  619.8609
  23  564.0803
  24  553.5289
  25  501.508
  26  583.6708
  27  588.6008
  28  556.4291
  29  635.8878
  30  714.985
  31  582.8345
  32  585.8172
  33  657.0585
  34  684.0089
  35  569.2281
  36  637.2213
  37  478.82
  38  388.409
  39  398.8018
  40  476.6804
  41  531.0569
  42  550.7901
  43  580.4447
  44  577.2251
  45  539.837
  46  455.348
  47  482.4356
  48  582.8433
  49  583.564
  50  479.4459
  51  568.6172
  52  630.6224
  53  592.2104
  54  623.0643
  55  591.6677
  56  669.5248
  57  716.4325
  58  626.3038
  59  587.4853
  60  580.5895
  61  643.0695
  62  650.4009
  63  694.8699
  64  715.0543
  65  706.3329
  66  555.4737
  67  526.1791
  68  557.9045
  69  519.1829
  70  525.1175
  71  647.3152
  72  656.7864
  73  570.1694
  74  556.0601
  75  542.9001
  76  665.9838
  77  631.0756
  78  636.0385
  79  636.5172
  80  634.6843
  81  618.2565
  82  570.0171
  83  630.8188
  84  602.7867
  85  652.8535
  86  645.7574
  87  618.607
  88  707.8949
  89  653.5386
  90  642.8663
  91  675.5233
  92  578.7397
  93  533.3492
  94  615.823
  95  665.6649
  96  612.5872
  97  500.4649
  98  691.2267
  99  576.6324
 100  552.2068
 101  602.1527
 102  543.432
 103  580.7362
 104  556.2174
 105  559.4338
 106  582.9159
 107  504.3535
 108  597.778
 109  602.3417
 110  518.6913
 111  506.2532
 112  543.4459
 113  569.8831
 114  611.4476
 115  417.5269
 116  427.1418
 117  539.9333
 118  541.2285
 119  635.4484
 120  663.8229
 121  560.6561
 122  467.0519
 123  470.5966
 124  548.0284
 125  628.6539
 126  637.0121
 127  470.3874
 128  456.9727
 129  539.7291
 130  452.2902
 131  431.536
 132  550.2409
 133  529.0742
 134  496.7748
 135  492.6895
 136  605.826
 137  590.3605
 138  461.5882
 139  499.632
 140  490.6957
 141  560.7681
 142  613.9644
 143  574.9545
 144  555.0073
 145  508.9498
 146  548.4008
 147  572.4131
 148  590.9739
 149  564.9289
 150  508.7406
 151  577.137
 152  538.9404
 153  645.2081
 154  639.3608
 155  717.1454
 156  660.446
 157  635.6285
 158  621.6771
 159  591.2469
 160  504.8775
 161  552.1383
 162  551.2499
 163  660.5982
 164  492.6827
 165  569.7787
 166  487.0391
 167  445.9602
 168  499.8949
 169  518.0819
 170  609.6502
 171  589.5005
 172  513.8009
 173  581.9369
 174  712.9274
 175  691.4252
 176  628.7731
 177  731.0565
 178  713.0635
 179  654.9228
 180  518.7532
 181  639.132
 182  507.7901
 183  599.3893
 184  650.6196
 185  600.4196
 186  574.8785
 187  595.0617
 188  545.5398
 189  511.0628
 190  577.0209
 191  507.4854
 192  509.0327
 193  584.6211
 194  568.1498
 195  563.0142
 196  545.8795
 197  533.3795
 198  651.6069
 199  628.5175
 200  562.9722
 201  614.963
 202  645.8972
 203  619.0822
 204  678.8242
 205  657.6299
 206  603.5372
 207  643.473
 208  671.0397
 209  658.6915
 210  611.2224
 211  570.4722
 212  614.3582
 213  497.9157
 214  597.9615
 215  634.6874
 216  558.5626
 217  592.6526
 218  564.4224
 219  500.9589
 220  506.0282
 221  433.5425
 222  495.9202
 223  581.4866
 224  550.0853
 225  612.0276
 226  659.1257
 227  659.84
 228  770.5559
 229  756.9977
 230  698.3113
 231  608.54
 232  478.7799
 233  460.3849
 234  502.3168
 235  600.0582
 236  565.0604
 237  565.9409
 238  611.7942
 239  500.8065
 240  484.6033
 241  507.0533
 242  521.8582
 243  590.6334
 244  610.4476
 245  618.2148
 246  616.5153
 247  637.4676
 248  697.1063
 249  559.7383
 250  502.8434
 251  636.0801
 252  587.1699
 253  512.616
 254  522.5941
 255  526.6943
 256  353.2951
 257  517.5032
 258  651.9201
 259  583.5646
 260  686.3475
 261  654.3678
 262  630.6268
 263  646.9761
 264  769.6072
 265  746.3125
 266  648.9905
 267  632.8137
 268  513.7801
 269  530.5405
 270  595.909
 271  568.7368
 272  651.2599
 273  474.1785
 274  528.8433
 275  599.1808
 276  563.9349
 277  649.2151
 278  555.5767
 279  637.7079
 280  597.2552
 281  571.1664
 282  571.3832
 283  517.3824
 284  553.8193
 285  615.0818
 286  589.8557
 287  591.7347
 288  694.9277
 289  692.0536
 290  667.05
 291  614.2212
 292  635.0529
 293  654.3937
 294  729.397
 295  656.5941
 296  710.5294
 297  651.0258
 298  579.03
 299  534.1957
 300  514.1036
 301  617.9481
 302  656.9241
 303  638.3113
 304  584.903
 305  622.6682
 306  713.3238
 307  674.8867
 308  689.2799
 309  753.7117
 310  742.9918
 311  598.5384
 312  555.5127
 313  636.4571
 314  650.8541
 315  641.6031
 316  683.3116
 317  632.2397
 318  584.6697
 319  640.5363
 320  678.6464
 321  664.3901
 322  705.3464
 323  518.3146
 324  575.1155
 325  760.6671
 326  662.8104
 327  634.1503
 328  668.0009
 329  600.9508
 330  520.7664
 331  504.1382
 332  688.8451
 333  712.4646
 334  679.3935
 335  661.3186
 336  570.1389
 337  673.2487
 338  709.8419
 339  718.6403
 340  709.358
 341  606.3237
 342  581.6791
 343  521.5175
 344  647.9229
 345  663.1204
 346  605.8772
 347  656.7996
 348  648.3657
 349  615.4947
 350  637.1885
 351  666.6328
 352  578.9674
 353  575.8098
 354  454.5856
 355  504.1372
 356  559.9734
 357  549.3932
 358  558.8339
 359  619.236
 360  496.9669
 361  452.1723
 362  539.2938
 363  549.2698
 364  615.2371
 365  583.0419
 366  558.8561
 367  565.4219
 368  580.3527
 369  651.8849
 370  561.4838
 371  595.1101
 372  601.1215
 373  568.4482
 374  653.5629
 375  723.0041
 376  620.5919
 377  535.4113
 378  589.9824
 379  705.409
 380  564.6296
 381  585.9846
 382  591.2723
 383  561.1461
 384  550.6168
 385  514.9352
 386  643.7471
 387  669.127
 388  722.2589
 389  728.7551
 390  669.8695
 391  595.307
 392  524.0641
 393  392.7419
 394  459.931
 395  569.3143
 396  615.002
 397  600.037
 398  610.7596
 399  687.2156
 400  745.3894
 401  729.9734
 402  735.4059
 403  660.8028
 404  604.7427
 405  695.1917
 406  694.1278
 407  701.1002
 408  611.0013
 409  567.3673
 410  599.442
 411  713.7512
 412  683.5875
 413  659.8307
 414  689.0951
 415  691.2753
 416  598.4952
 417  670.6901
 418  842.6091
 419  916.2172
 420  790.8506
 421  704.4022
 422  728.6072
 423  746.2231
 424  691.0091
 425  642.5196
 426  606.213
 427  620.3876
 428  619.8579
 429  461.4081
 430  570.5915
 431  576.9045
 432  523.2982
 433  405.3484
 434  432.0658
 435  615.2007
 436  601.0135
 437  598.368
 438  529.2629
 439  505.6584
 440  606.9363
 441  612.0338
 442  609.6389
 443  449.031
 444  382.0685
 445  503.7942
 446  522.4575
 447  502.2902
 448  535.7694
 449  627.4039
 450  615.1369
 451  597.765
 452  591.1229
 453  549.9396
 454  692.0114
 455  689.5797
 456  625.935
 457  762.4689
 458  753.5732
 459  690.2593
 460  650.9208
 461  590.25
 462  711.0101
 463  681.8552
 464  575.6776
 465  499.5033
 466  529.418
 467  627.0124
 468  663.9588
 469  609.6251
 470  592.3032
 471  592.4381
 472  629.0599
 473  722.3989
 474  589.4437
 475  620.6647
 476  630.5958
 477  676.6257
 478  684.1056
 479  597.2552
 480  572.4689
 481  588.5701
 482  537.7551
 483  609.5965
 484  708.1809
 485  703.9604
 486  552.0572
 487  543.1383
 488  656.0405
 489  704.7218
 490  703.2091
 491  677.7761
 492  780.8911
 493  653.9577
 494  660.3795
 495  690.7578
 496  662.6674
 497  713.7125
 498  639.6714
 499  659.7717
 500  657.1083
 501  667.7984
 502  637.0347
 503  568.636
 504  620.4443
 505  615.1993
 506  485.1833
 507  610.9603
 508  717.5634
 509  899.8726
 510  1118.216
 511  1169.986
