# Input file       =  1183869605.095054_cleaned.dat
# Candidate        =  PSR_0332+5434
# Telescope        =  AR
# Epoch_topo       =  57946.194295081645
# Epoch_bary       =  N/A
# T_sample         =  0.002
# Data Folded      =  7340032
# Data Avg         =  0.0423244953539674
# Data StdDev      =  1.00021923438954 
# Profile Bins     =  512
# Profile Avg      =  606.855862628738 
# Profile StdDev   =  119.759285975904 
# Reduced chi-sqr  =  1.096
# Prob(Noise)      <  0.0658   (~1.5 sigma)
# P_topo (ms)      =  714.480827168858  +/- 0.000159
# P'_topo (s/s)    =  -0                +/- 8.38e-11
# P''_topo (s/s^2) =  0                 +/- 3.7e-14
# P_bary (ms)      =  N/A
# P'_bary (s/s)    =  N/A
# P''_bary (s/s^2) =  N/A
# P_orb (s)        =  N/A
# asin(i)/c (s)    =  N/A
# eccentricity     =  N/A
# w (rad)          =  N/A
# T_peri           =  N/A
######################################################
   0  1124.022
   1  1050.588
   2  965.0197
   3  924.6422
   4  836.5765
   5  673.6948
   6  605.0649
   7  587.8239
   8  564.1088
   9  543.1479
  10  610.9666
  11  670.5958
  12  618.8312
  13  648.3196
  14  674.0029
  15  663.2729
  16  613.5257
  17  621.0616
  18  551.2018
  19  610.3362
  20  613.8382
  21  549.9774
  22  590.4453
  23  605.7064
  24  549.7809
  25  532.5074
  26  513.7608
  27  623.3275
  28  545.1777
  29  587.2661
  30  701.3288
  31  663.0275
  32  579.8194
  33  590.4177
  34  706.2206
  35  596.7845
  36  608.4095
  37  580.0883
  38  432.7415
  39  372.078
  40  453.6128
  41  489.3487
  42  556.705
  43  547.6614
  44  580.9545
  45  577.6872
  46  488.0834
  47  460.5759
  48  513.6913
  49  608.3221
  50  542.0797
  51  486.4238
  52  623.1294
  53  602.2736
  54  607.5879
  55  617.9577
  56  606.057
  57  715.3677
  58  666.3816
  59  624.009
  60  568.2413
  61  622.101
  62  630.2563
  63  672.3794
  64  703.5904
  65  734.3672
  66  632.4767
  67  520.4299
  68  540.0054
  69  566.5489
  70  491.6505
  71  590.9088
  72  662.3441
  73  618.3644
  74  565.0851
  75  528.2159
  76  605.7352
  77  660.4062
  78  627.8818
  79  638.3198
  80  624.8364
  81  648.5197
  82  580.8049
  83  606.4837
  84  612.0886
  85  623.1501
  86  677.8499
  87  609.0779
  88  663.5208
  89  693.9447
  90  633.7208
  91  673.0101
  92  633.9191
  93  530.7012
  94  567.3541
  95  644.4839
  96  671.2361
  97  527.3093
  98  571.5422
  99  698.3809
 100  514.2719
 101  602.5659
 102  569.5197
 103  549.8094
 104  595.8506
 105  529.8757
 106  594.5092
 107  536.1224
 108  522.4982
 109  625.5972
 110  563.2445
 111  501.3688
 112  551.1064
 113  530.0201
 114  619.7855
 115  517.6483
 116  395.2917
 117  489.5186
 118  538.2665
 119  582.7542
 120  659.8846
 121  639.2349
 122  488.1012
 123  446.3128
 124  495.6815
 125  596.5024
 126  655.457
 127  570.9056
 128  431.6716
 129  515.2976
 130  517.5143
 131  416.0222
 132  471.5441
 133  567.5271
 134  498.5447
 135  497.6018
 136  526.4332
 137  639.7256
 138  507.5677
 139  477.1388
 140  485.3321
 141  537.3982
 142  590.1757
 143  612.278
 144  544.5709
 145  538.654
 146  517.6155
 147  570.3727
 148  576.5911
 149  585.6778
 150  524.9847
 151  548.5893
 152  569.6706
 153  571.1698
 154  651.5732
 155  658.1022
 156  720.1464
 157  641.9704
 158  630.9299
 159  617.9279
 160  535.0083
 161  520.5594
 162  533.3862
 163  621.5283
 164  596.8557
 165  511.7138
 166  564.4278
 167  452.6665
 168  453.6783
 169  506.3973
 170  549.7695
 171  634.1663
 172  545.7916
 173  525.6478
 174  641.5672
 175  729.1677
 176  637.7974
 177  688.1412
 178  733.6383
 179  707.3083
 180  557.4733
 181  578.7611
 182  585.3964
 183  526.706
 184  627.5214
 185  649.0635
 186  561.1267
 187  615.7072
 188  560.2139
 189  528.9955
 190  534.6823
 191  567.421
 192  474.7495
 193  552.8058
 194  578.9406
 195  576.636
 196  559.0166
 197  515.2657
 198  586.2089
 199  662.7086
 200  594.3677
 201  583.0609
 202  620.6904
 203  653.7227
 204  630.4119
 205  692.9503
 206  623.9122
 207  604.1414
 208  652.7504
 209  670.7114
 210  643.2831
 211  579.5894
 212  619.0432
 213  556.2068
 214  512.7103
 215  653.6907
 216  585.832
 217  566.6526
 218  577.74
 219  539.5406
 220  501.1656
 221  491.2066
 222  422.4205
 223  550.2698
 224  576.4932
 225  570.657
 226  647.5725
 227  658.7332
 228  687.6342
 229  783.4814
 230  736.6146
 231  660.3847
 232  563.9764
 233  433.0767
 234  483.3324
 235  530.5648
 236  611.8171
 237  546.5364
 238  602.5823
 239  565.9913
 240  466.6194
 241  515.2432
 242  507.9765
 243  551.4297
 244  603.366
 245  605.7624
 246  636.4211
 247  601.2733
 248  685.0986
 249  655.1486
 250  502.2208
 251  565.2546
 252  638.7419
 253  538.9971
 254  509.225
 255  544.7765
 256  443.3617
 257  378.2632
 258  622.6052
 259  617.3419
 260  611.2704
 261  702.7415
 262  635.2249
 263  629.6744
 264  700.4227
 265  772.3322
 266  698.7742
 267  635.0639
 268  601.8265
 269  476.8785
 270  602.3097
 271  543.1423
 272  624.2162
 273  584.4805
 274  467.5412
 275  593.6277
 276  569.8863
 277  603.2492
 278  617.1046
 279  568.6172
 280  644.1631
 281  575.4622
 282  575.8279
 283  545.1279
 284  513.9228
 285  592.7526
 286  616.5109
 287  573.8524
 288  638.5566
 289  717.3027
 290  676.4014
 291  639.4331
 292  626.5779
 293  627.175
 294  693.1212
 295  712.4649
 296  661.1957
 297  724.9418
 298  576.9118
 299  578.5278
 300  502.3372
 301  562.7628
 302  640.6581
 303  650.6924
 304  616.1476
 305  589.3
 306  674.6907
 307  692.2742
 308  671.7866
 309  720.925
 310  780.364
 311  673.4835
 312  562.9903
 313  579.2024
 314  667.1407
 315  625.0272
 316  657.373
 317  681.3123
 318  597.4221
 319  605.6527
 320  675.2657
 321  662.195
 322  698.3066
 323  626.5635
 324  497.2146
 325  677.0768
 326  747.2285
 327  619.5609
 328  656.4851
 329  648.1928
 330  553.7384
 331  507.9862
 332  556.2973
 333  753.5463
 334  676.0232
 335  684.5138
 336  622.5145
 337  569.106
 338  730.9252
 339  689.7834
 340  743.0239
 341  674.1038
 342  581.434
 343  563.8152
 344  544.0429
 345  679.7808
 346  634.6394
 347  611.0614
 348  682.7828
 349  618.2819
 350  620.924
 351  673.358
 352  618.2974
 353  584.407
 354  517.8858
 355  442.6133
 356  546.1281
 357  559.0639
 358  540.9695
 359  600.5754
 360  585.0109
 361  445.6304
 362  493.6581
 363  544.8682
 364  583.6425
 365  608.2431
 366  567.5721
 367  549.6729
 368  569.6075
 369  625.7499
 370  619.7634
 371  566.3242
 372  607.294
 373  581.2826
 374  583.1102
 375  703.894
 376  695.1824
 377  565.5839
 378  538.7255
 379  663.6282
 380  657.5855
 381  553.7468
 382  592.0883
 383  585.2065
 384  553.5232
 385  524.7512
 386  564.2887
 387  668.0848
 388  697.8829
 389  723.3416
 390  712.439
 391  636.5163
 392  570.4384
 393  461.0303
 394  382.6197
 395  527.5218
 396  598.9978
 397  607.8525
 398  592.7701
 399  651.4878
 400  718.8765
 401  752.3139
 402  717.3563
 403  714.6072
 404  615.5172
 405  649.8008
 406  696.7737
 407  713.7806
 408  649.3889
 409  591.9495
 410  561.7678
 411  662.8542
 412  716.6819
 413  658.8141
 414  659.9886
 415  714.2371
 416  649.3233
 417  618.5778
 418  743.7482
 419  886.7142
 420  871.0344
 421  748.004
 422  703.2147
 423  748.0002
 424  701.1246
 425  697.021
 426  603.7383
 427  630.252
 428  625.031
 429  551.1331
 430  470.5336
 431  591.2864
 432  554.6041
 433  480.8125
 434  398.7652
 435  501.7946
 436  637.0731
 437  570.9452
 438  599.4998
 439  500.1172
 440  559.1327
 441  618.9583
 442  607.1218
 443  553.5892
 444  375.8425
 445  439.5531
 446  529.0004
 447  519.7269
 448  504.213
 449  588.0677
 450  637.8111
 451  580.2766
 452  611.2024
 453  551.7997
 454  616.8707
 455  725.9218
 456  632.6727
 457  675.7136
 458  783.2066
 459  711.8083
 460  691.1733
 461  602.7268
 462  629.3723
 463  723.0416
 464  627.3972
 465  556.7556
 466  489.1638
 467  577.5619
 468  658.3652
 469  636.8922
 470  601.3422
 471  575.2836
 472  617.0146
 473  663.8347
 474  688.3619
 475  569.9784
 476  649.6559
 477  641.2681
 478  680.9633
 479  658.7634
 480  555.1018
 481  614.4246
 482  531.5803
 483  576.5949
 484  640.9765
 485  756.9747
 486  622.5827
 487  528.6277
 488  588.0599
 489  703.168
 490  702.1529
 491  674.7808
 492  730.1778
 493  747.8152
 494  624.2856
 495  689.351
 496  665.0712
 497  691.1777
 498  693.1541
 499  627.3695
 500  683.0977
 501  646.4906
 502  680.9249
 503  581.6497
 504  592.1017
 505  625.8398
 506  550.5204
 507  507.8445
 508  671.5169
 509  797.0445
 510  997.6038
 511  1179.249
