# Input file       =  1188020427.116889_cleaned.dat
# Candidate        =  PSR_0332+5434
# Telescope        =  AR
# Epoch_topo       =  57994.236216630663
# Epoch_bary       =  N/A
# T_sample         =  0.002
# Data Folded      =  7340032
# Data Avg         =  0.0108777116389675
# Data StdDev      =  1.00001340973573 
# Profile Bins     =  512
# Profile Avg      =  155.947279165833 
# Profile StdDev   =  119.734641965142 
# Reduced chi-sqr  =  1.196
# Prob(Noise)      <  0.0015   (~3.0 sigma)
# P_topo (ms)      =  714.463685578057  +/- 0.000418
# P'_topo (s/s)    =  -0                +/- 2.2e-10
# P''_topo (s/s^2) =  0                 +/- 9.73e-14
# P_bary (ms)      =  N/A
# P'_bary (s/s)    =  N/A
# P''_bary (s/s^2) =  N/A
# P_orb (s)        =  N/A
# asin(i)/c (s)    =  N/A
# eccentricity     =  N/A
# w (rad)          =  N/A
# T_peri           =  N/A
######################################################
   0  604.2306
   1  555.4948
   2  466.2075
   3  348.6602
   4  320.9487
   5  234.7476
   6  376.331
   7  382.9687
   8  229.082
   9  151.5394
  10  315.743
  11  357.1567
  12  312.3971
  13  384.1442
  14  391.773
  15  237.5351
  16  260.63
  17  309.111
  18  256.0362
  19  285.67
  20  244.5145
  21  168.57
  22  96.82935
  23  171.353
  24  254.2678
  25  189.6085
  26  67.93161
  27  72.30264
  28  70.73435
  29  226.4226
  30  138.0181
  31  178.5108
  32  128.3932
  33  177.7747
  34  145.2721
  35  159.6344
  36  54.87619
  37  117.4087
  38  44.20784
  39  30.39359
  40  122.0985
  41  279.6765
  42  331.8339
  43  179.598
  44  107.0166
  45  136.0034
  46  80.1688
  47  177.9905
  48  330.1362
  49  181.9229
  50  235.5908
  51  146.6825
  52  216.1698
  53  228.1207
  54  223.0982
  55  28.28275
  56  220.2638
  57  295.7415
  58  334.8455
  59  131.6293
  60  158.7369
  61  97.39502
  62  104.1474
  63  101.1824
  64  115.9499
  65  134.6645
  66  135.1527
  67  101.5282
  68  142.0313
  69  166.048
  70  374.6416
  71  308.8416
  72  288.1089
  73  -4.362091
  74  93.2765
  75  128.4094
  76  230.0013
  77  80.63618
  78  81.55036
  79  127.9175
  80  104.3904
  81  170.1399
  82  158.6084
  83  151.7859
  84  139.8101
  85  -2.609809
  86  49.55405
  87  93.27666
  88  173.3439
  89  71.53955
  90  28.03984
  91  186.0093
  92  176.2743
  93  207.7664
  94  135.3246
  95  115.2989
  96  68.70197
  97  128.6313
  98  103.2133
  99  94.21708
 100  187.1726
 101  117.0639
 102  63.41097
 103  177.5747
 104  121.403
 105  181.801
 106  171.8984
 107  183.612
 108  142.7241
 109  39.3736
 110  32.68295
 111  178.1211
 112  118.9424
 113  106.3049
 114  94.09721
 115  235.0813
 116  249.1838
 117  160.5472
 118  54.45933
 119  111.6154
 120  72.11156
 121  164.2116
 122  245.6289
 123  111.0173
 124  79.12962
 125  260.1113
 126  197.0837
 127  201.9529
 128  41.4429
 129  55.47132
 130  112.4733
 131  98.45638
 132  54.51987
 133  -30.46285
 134  -6.810853
 135  176.5289
 136  218.4034
 137  246.4113
 138  16.214
 139  55.46926
 140  135.7961
 141  91.18542
 142  87.96313
 143  95.96292
 144  266.3083
 145  253.3548
 146  165.1115
 147  139.9914
 148  40.23127
 149  140.9436
 150  186.4036
 151  68.41046
 152  -23.33881
 153  133.2105
 154  246.9206
 155  220.3763
 156  152.4408
 157  267.6278
 158  171.8425
 159  -11.17104
 160  134.7361
 161  164.0724
 162  128.4849
 163  60.60175
 164  298.8828
 165  265.7942
 166  235.3421
 167  278.1366
 168  128.5935
 169  197.8549
 170  120.3708
 171  137.3628
 172  230.9809
 173  81.46018
 174  207.9561
 175  150.2704
 176  223.9109
 177  147.1617
 178  51.27142
 179  135.3298
 180  248.6007
 181  -5.714382
 182  263.5301
 183  280.824
 184  60.63604
 185  136.9592
 186  171.7127
 187  246.487
 188  256.1782
 189  208.765
 190  -12.26046
 191  -3.164673
 192  16.16169
 193  134.7203
 194  69.09644
 195  205.3769
 196  186.6451
 197  144.5963
 198  213.9427
 199  176.8204
 200  187.9143
 201  203.6974
 202  227.0083
 203  303.1688
 204  211.7589
 205  163.403
 206  165.9264
 207  221.1863
 208  126.4258
 209  149.5589
 210  0.2327821
 211  205.2952
 212  182.6607
 213  156.1625
 214  228.1344
 215  230.4511
 216  329.5216
 217  295.775
 218  279.7055
 219  328.5441
 220  325.4511
 221  375.2328
 222  281.1229
 223  105.0192
 224  131.703
 225  178.6894
 226  101.6755
 227  155.163
 228  156.8725
 229  91.25743
 230  11.45028
 231  -31.96567
 232  43.69766
 233  57.60246
 234  156.4263
 235  144.4083
 236  15.06462
 237  57.47861
 238  137.1642
 239  97.3875
 240  141.3719
 241  75.24973
 242  162.9972
 243  162.6473
 244  22.76123
 245  -1.448057
 246  69.55767
 247  143.4602
 248  175.2652
 249  113.3864
 250  62.85461
 251  52.67572
 252  79.5929
 253  41.52413
 254  16.64507
 255  -22.0548
 256  178.9478
 257  119.6889
 258  106.7059
 259  183.9067
 260  170.0585
 261  185.3745
 262  197.5607
 263  120.0131
 264  110.5465
 265  11.98195
 266  -83.76175
 267  47.91319
 268  201.7596
 269  200.9973
 270  117.7446
 271  62.60646
 272  75.56498
 273  193.0538
 274  95.91142
 275  138.8101
 276  128.306
 277  242.6937
 278  192.4052
 279  229.3343
 280  204.478
 281  280.4451
 282  303.7182
 283  234.0128
 284  41.88282
 285  109.6837
 286  301.9348
 287  357.9996
 288  235.4079
 289  263.5944
 290  203.6533
 291  115.7392
 292  35.67525
 293  -25.77246
 294  32.95731
 295  93.2969
 296  210.1367
 297  311.1046
 298  73.26271
 299  79.20068
 300  36.60852
 301  205.2685
 302  218.702
 303  121.0158
 304  101.5517
 305  139.7655
 306  228.1699
 307  231.4233
 308  56.40244
 309  96.22125
 310  242.8436
 311  186.6708
 312  3.898012
 313  127.3901
 314  148.9384
 315  227.2327
 316  160.5588
 317  75.89687
 318  158.7982
 319  154.2266
 320  72.94504
 321  91.77221
 322  90.24115
 323  129.3949
 324  196.663
 325  218.0017
 326  112.6886
 327  114.9178
 328  245.0624
 329  180.5803
 330  135.3742
 331  176.0542
 332  75.54804
 333  90.46638
 334  89.0517
 335  221.2777
 336  259.5031
 337  93.08639
 338  120.5408
 339  215.6102
 340  185.6666
 341  187.747
 342  22.05045
 343  127.1292
 344  192.9656
 345  124.3208
 346  180.8069
 347  278.485
 348  194.8884
 349  208.5634
 350  297.4272
 351  142.337
 352  23.9601
 353  132.2591
 354  219.0999
 355  202.527
 356  34.29273
 357  99.35392
 358  98.80084
 359  81.86806
 360  210.1036
 361  195.8169
 362  330.432
 363  310.6366
 364  158.3193
 365  248.2093
 366  241.4761
 367  262.5916
 368  55.78118
 369  47.39904
 370  74.39439
 371  152.1883
 372  128.1671
 373  110.77
 374  137.1973
 375  174.1814
 376  46.47247
 377  117.2994
 378  165.0537
 379  307.5919
 380  172.1606
 381  169.802
 382  244.2388
 383  179.6165
 384  144.2378
 385  36.48175
 386  -31.4016
 387  5.077899
 388  81.27751
 389  99.37343
 390  124.0645
 391  207.9962
 392  181.9088
 393  30.70431
 394  118.8421
 395  209.2634
 396  154.0467
 397  253.6641
 398  209.8966
 399  88.5742
 400  65.96165
 401  107.308
 402  102.3385
 403  85.75873
 404  103.4621
 405  90.8847
 406  76.52236
 407  162.8011
 408  87.16917
 409  96.82439
 410  241.0894
 411  91.67263
 412  77.5685
 413  128.683
 414  259.9013
 415  116.2735
 416  119.0246
 417  47.06531
 418  -25.99053
 419  -53.42973
 420  147.5391
 421  175.9335
 422  109.2524
 423  163.178
 424  273.8632
 425  218.7837
 426  117.9305
 427  96.43153
 428  131.0904
 429  99.67934
 430  28.36955
 431  134.3447
 432  119.5889
 433  69.3023
 434  193.2868
 435  143.7863
 436  80.60178
 437  304.0947
 438  124.378
 439  76.64303
 440  135.0805
 441  283.785
 442  145.5184
 443  93.35379
 444  119.1949
 445  163.0034
 446  171.3598
 447  169.4426
 448  27.43202
 449  11.39619
 450  32.40121
 451  156.1514
 452  113.5654
 453  43.25676
 454  16.02402
 455  50.14296
 456  29.53351
 457  101.0181
 458  54.96902
 459  86.88338
 460  152.3617
 461  60.16413
 462  112.8938
 463  276.4092
 464  185.1177
 465  106.1958
 466  196.4481
 467  269.106
 468  109.6877
 469  122.2676
 470  149.4454
 471  205.2996
 472  164.0036
 473  84.64452
 474  115.7912
 475  121.1582
 476  183.0919
 477  156.4066
 478  152.1039
 479  160.9081
 480  223.5094
 481  280.5556
 482  301.3198
 483  134.3742
 484  127.3248
 485  173.5261
 486  163.389
 487  150.3009
 488  228.3598
 489  117.7569
 490  170.552
 491  103.6248
 492  25.8403
 493  52.90873
 494  156.3283
 495  226.4018
 496  294.1503
 497  290.2029
 498  170.3321
 499  173.4036
 500  218.9331
 501  216.0833
 502  138.554
 503  268.4366
 504  313.4584
 505  143.6112
 506  88.7106
 507  234.0641
 508  342.3088
 509  373.0715
 510  502.7437
 511  623.6472
