# Input file       =  1188421806.120907_cleaned.dat
# Candidate        =  PSR_0332+5434
# Telescope        =  AR
# Epoch_topo       =  57998.881806954945
# Epoch_bary       =  N/A
# T_sample         =  0.002
# Data Folded      =  7143424
# Data Avg         =  0.0132440030759907
# Data StdDev      =  1.00007613929866 
# Profile Bins     =  512
# Profile Avg      =  184.8430633085   
# Profile StdDev   =  118.127577948048 
# Reduced chi-sqr  =  1.341
# Prob(Noise)      <  3.68e-07   (~5.0 sigma)
# P_topo (ms)      =  714.463591208481  +/- 0.000164
# P'_topo (s/s)    =  -0                +/- 8.91e-11
# P''_topo (s/s^2) =  0                 +/- 4.04e-14
# P_bary (ms)      =  N/A
# P'_bary (s/s)    =  N/A
# P''_bary (s/s^2) =  N/A
# P_orb (s)        =  N/A
# asin(i)/c (s)    =  N/A
# eccentricity     =  N/A
# w (rad)          =  N/A
# T_peri           =  N/A
######################################################
   0  756.2444
   1  724.2763
   2  635.2126
   3  591.2776
   4  330.9402
   5  209.3024
   6  117.6368
   7  109.7895
   8  3.740662
   9  45.76332
  10  199.7211
  11  290.4352
  12  325.6481
  13  345.0692
  14  383.0331
  15  351.7245
  16  375.4521
  17  369.3995
  18  277.4222
  19  152.1447
  20  159.4944
  21  144.3507
  22  133.1316
  23  137.1062
  24  206.9432
  25  167.2921
  26  200.565
  27  161.9462
  28  172.3771
  29  157.1988
  30  32.15543
  31  91.48112
  32  218.5146
  33  177.7939
  34  106.5625
  35  208.1095
  36  315.7217
  37  310.449
  38  432.1944
  39  253.4177
  40  209.7289
  41  339.1023
  42  222.0753
  43  208.8104
  44  134.1668
  45  85.77633
  46  199.0333
  47  124.9012
  48  194.7289
  49  95.63965
  50  131.749
  51  262.6831
  52  329.2207
  53  299.3697
  54  178.8704
  55  184.4334
  56  160.6159
  57  115.7811
  58  238.7823
  59  240.521
  60  202.4463
  61  200.2579
  62  304.1795
  63  252.5037
  64  250.357
  65  377.439
  66  336.5201
  67  161.1302
  68  35.15359
  69  169.4707
  70  81.67615
  71  190.0523
  72  333.5944
  73  164.9221
  74  127.4657
  75  309.8214
  76  332.3752
  77  333.2743
  78  253.5067
  79  305.0782
  80  196.7419
  81  97.40553
  82  175.3579
  83  266.3301
  84  323.2031
  85  200.774
  86  86.78455
  87  200.1226
  88  235.1064
  89  380.8443
  90  268.0055
  91  106.4929
  92  88.21943
  93  106.3965
  94  171.9749
  95  137.4797
  96  76.93282
  97  113.7852
  98  160.6577
  99  344.5413
 100  361.9316
 101  83.33533
 102  120.3506
 103  121.9625
 104  168.9701
 105  164.246
 106  145.5242
 107  47.27085
 108  109.3433
 109  266.7532
 110  261.5261
 111  179.5431
 112  125.1723
 113  182.7848
 114  169.473
 115  118.1717
 116  152.9078
 117  114.6618
 118  184.9677
 119  182.7887
 120  283.0975
 121  224.1879
 122  87.62074
 123  163.9506
 124  120.0923
 125  137.3684
 126  180.8666
 127  136.1585
 128  16.67897
 129  177.2938
 130  278.4908
 131  142.1585
 132  160.1545
 133  169.7052
 134  220.2532
 135  213.8877
 136  262.5315
 137  140.7647
 138  60.53983
 139  133.3975
 140  154.1191
 141  118.6153
 142  64.47797
 143  91.10377
 144  155.2667
 145  270.3399
 146  299.3681
 147  147.2681
 148  5.720084
 149  22.17977
 150  -129.1584
 151  59.28927
 152  170.7116
 153  217.0713
 154  205.576
 155  192.2971
 156  103.7089
 157  217.6096
 158  237.3461
 159  126.5417
 160  105.7132
 161  87.77522
 162  155.9769
 163  40.37567
 164  -80.67576
 165  118.3313
 166  154.2154
 167  -11.65924
 168  69.16716
 169  135.6178
 170  289.9988
 171  235.4627
 172  235.6785
 173  104.9467
 174  -11.1719
 175  150.5627
 176  307.8881
 177  291.0672
 178  150.9008
 179  204.4774
 180  215.0869
 181  40.79364
 182  -50.01453
 183  95.70962
 184  210.5838
 185  247.1927
 186  190.8009
 187  108.7524
 188  -5.483079
 189  157.8534
 190  300.9615
 191  282.8585
 192  52.15736
 193  149.7545
 194  320.7075
 195  156.936
 196  115.8111
 197  116.2953
 198  111.2924
 199  172.4438
 200  285.5665
 201  262.8914
 202  228.7559
 203  239.4902
 204  127.0832
 205  114.2516
 206  85.65932
 207  78.0043
 208  218.5498
 209  226.2788
 210  115.4955
 211  294.0888
 212  237.3917
 213  138.0516
 214  53.78323
 215  50.14646
 216  205.6754
 217  178.9189
 218  61.78868
 219  19.41484
 220  172.3323
 221  258.868
 222  193.3672
 223  156.8953
 224  261.917
 225  332.111
 226  124.7731
 227  244.0141
 228  198.1458
 229  195.0817
 230  121.8225
 231  29.38948
 232  122.2585
 233  203.395
 234  249.0402
 235  328.2947
 236  298.1073
 237  223.1129
 238  89.1472
 239  58.2164
 240  145.5924
 241  40.90475
 242  89.74438
 243  193.8744
 244  269.5001
 245  194.8474
 246  34.80424
 247  138.7947
 248  75.81886
 249  49.26088
 250  43.77021
 251  156.19
 252  277.6649
 253  237.0472
 254  226.9022
 255  110.5816
 256  139.6844
 257  153.8515
 258  349.2128
 259  314.4051
 260  246.7464
 261  324.4967
 262  234.1972
 263  202.8969
 264  198.7224
 265  173.3355
 266  119.6529
 267  268.3742
 268  311.3022
 269  207.8483
 270  241.8025
 271  282.9258
 272  257.383
 273  130.7699
 274  135.6135
 275  154.1661
 276  234.376
 277  265.6002
 278  312.7949
 279  292.1696
 280  303.5635
 281  162.7123
 282  42.48035
 283  139.6184
 284  180.6577
 285  244.3668
 286  321.4008
 287  202.7268
 288  84.31239
 289  197.7058
 290  210.5722
 291  199.3485
 292  203.9692
 293  159.5675
 294  198.6862
 295  67.46833
 296  235.237
 297  32.36053
 298  76.2234
 299  152.3053
 300  201.1282
 301  127.6729
 302  174.6762
 303  293.9802
 304  155.8525
 305  239.6552
 306  251.7984
 307  191.7051
 308  221.4731
 309  291.7166
 310  281.1475
 311  202.4444
 312  149.8923
 313  28.49641
 314  130.4288
 315  144.9001
 316  200.6076
 317  191.6485
 318  135.2644
 319  94.43261
 320  168.1816
 321  56.13615
 322  165.9762
 323  239.3852
 324  155.5232
 325  211.0137
 326  209.8655
 327  226.0575
 328  242.2756
 329  160.0207
 330  40.83318
 331  114.5324
 332  131.7706
 333  184.7328
 334  257.3769
 335  208.3614
 336  195.5468
 337  153.3359
 338  203.7475
 339  111.385
 340  -20.10595
 341  111.4194
 342  206.4717
 343  106.673
 344  92.3595
 345  78.84729
 346  184.9495
 347  104.7608
 348  8.817513
 349  40.81003
 350  -22.10872
 351  127.0933
 352  93.31635
 353  253.0408
 354  215.2593
 355  72.71413
 356  60.8448
 357  164.976
 358  151.8629
 359  132.1087
 360  204.719
 361  182.0032
 362  118.7816
 363  161.5284
 364  159.1344
 365  246.489
 366  42.23554
 367  126.0487
 368  197.9192
 369  233.26
 370  164.535
 371  207.3993
 372  190.6397
 373  159.2265
 374  137.276
 375  109.3109
 376  55.88245
 377  177.3323
 378  372.2148
 379  303.1203
 380  89.57193
 381  65.05799
 382  197.6893
 383  106.865
 384  168.4604
 385  263.2744
 386  176.0342
 387  186.3078
 388  278.9185
 389  345.2165
 390  293.461
 391  158.1055
 392  183.1293
 393  118.8486
 394  178.9767
 395  201.9734
 396  196.8609
 397  84.70529
 398  67.86775
 399  69.86472
 400  223.8759
 401  249.8811
 402  299.9843
 403  194.1419
 404  169.8189
 405  245.3906
 406  120.5941
 407  145.1622
 408  91.01344
 409  81.66349
 410  133.8407
 411  216.6481
 412  249.6103
 413  210.0064
 414  85.56586
 415  236.6043
 416  289.8102
 417  189.04
 418  161.5579
 419  107.8043
 420  127.614
 421  173.3371
 422  190.1747
 423  312.5212
 424  211.4819
 425  153.4358
 426  189.2435
 427  180.2899
 428  89.0075
 429  276.4344
 430  233.6419
 431  186.9771
 432  170.9476
 433  158.6216
 434  234.6819
 435  181.6926
 436  95.22927
 437  143.0523
 438  74.24924
 439  83.59698
 440  206.3995
 441  187.6608
 442  191.6816
 443  247.2007
 444  236.236
 445  279.4614
 446  291.3911
 447  199.2195
 448  120.9907
 449  237.64
 450  224.0655
 451  101.1466
 452  -25.48277
 453  53.38276
 454  156.3213
 455  166.5991
 456  219.6536
 457  214.0964
 458  216.2397
 459  169.6904
 460  79.10207
 461  189.2623
 462  71.81494
 463  147.0779
 464  209.0545
 465  130.5899
 466  153.6203
 467  208.1414
 468  257.4301
 469  98.10461
 470  185.4457
 471  295.9735
 472  297.8252
 473  230.7321
 474  269.4912
 475  313.8104
 476  175.4922
 477  237.1347
 478  182.0791
 479  160.4999
 480  100.9839
 481  129.5038
 482  280.6064
 483  362.0205
 484  174.9125
 485  185.3903
 486  284.3599
 487  228.9598
 488  224.4842
 489  242.9352
 490  198.588
 491  158.8479
 492  209.0535
 493  249.0432
 494  263.5912
 495  132.2308
 496  155.2452
 497  97.74757
 498  96.60664
 499  123.3005
 500  181.8721
 501  210.5885
 502  91.15866
 503  240.4584
 504  262.9015
 505  176.4933
 506  250.0892
 507  235.7215
 508  268.1393
 509  451.8036
 510  455.6026
 511  717.1824
