# Input file       =  1191351389.132284_cleaned.dat
# Candidate        =  PSR_0332+5434
# Telescope        =  AR
# Epoch_topo       =  58032.789017734765
# Epoch_bary       =  N/A
# T_sample         =  0.002
# Data Folded      =  7208960
# Data Avg         =  0.0109782836216278
# Data StdDev      =  0.999994949497313
# Profile Bins     =  512
# Profile Avg      =  154.597197593575 
# Profile StdDev   =  118.658576505044 
# Reduced chi-sqr  =  1.260
# Prob(Noise)      <  5.69e-05   (~3.9 sigma)
# P_topo (ms)      =  714.475970905955  +/- 0.000115
# P'_topo (s/s)    =  -0                +/- 6.2e-11
# P''_topo (s/s^2) =  0                 +/- 2.79e-14
# P_bary (ms)      =  N/A
# P'_bary (s/s)    =  N/A
# P''_bary (s/s^2) =  N/A
# P_orb (s)        =  N/A
# asin(i)/c (s)    =  N/A
# eccentricity     =  N/A
# w (rad)          =  N/A
# T_peri           =  N/A
######################################################
   0  900.3121
   1  767.2999
   2  462.47
   3  275.3972
   4  334.2275
   5  237.7195
   6  235.2307
   7  209.5841
   8  253.4819
   9  231.708
  10  285.2451
  11  314.0281
  12  293.7907
  13  295.6119
  14  203.637
  15  122.3982
  16  105.6371
  17  24.24927
  18  146.3896
  19  229.0311
  20  232.7575
  21  229.4105
  22  258.2263
  23  53.48835
  24  129.7243
  25  92.42515
  26  75.41698
  27  149.1707
  28  255.3752
  29  249.1314
  30  248.0816
  31  115.8169
  32  -50.73615
  33  174.0341
  34  218.026
  35  131.3692
  36  157.0209
  37  175.5175
  38  154.5463
  39  132.0507
  40  81.38769
  41  71.68033
  42  163.6993
  43  214.5083
  44  176.8179
  45  140.8952
  46  67.64915
  47  123.7963
  48  200.879
  49  198.6097
  50  130.7824
  51  86.10258
  52  54.33311
  53  158.7623
  54  220.9935
  55  90.0584
  56  119.8656
  57  104.326
  58  181.3224
  59  61.8961
  60  70.28912
  61  268.5647
  62  188.6582
  63  102.0695
  64  36.18974
  65  43.20042
  66  131.3169
  67  248.9301
  68  346.5401
  69  255.6311
  70  227.582
  71  182.1017
  72  31.97931
  73  44.47901
  74  141.5756
  75  203.5696
  76  163.2
  77  255.2377
  78  302.766
  79  68.09043
  80  -1.878911
  81  80.31085
  82  109.0441
  83  114.8843
  84  148.4017
  85  210.4177
  86  175.7941
  87  169.2969
  88  72.66357
  89  88.69378
  90  150.3557
  91  168.0951
  92  168.6244
  93  201.4014
  94  74.35271
  95  132.683
  96  121.0256
  97  181.6523
  98  48.33413
  99  -5.420953
 100  26.62856
 101  83.51396
 102  204.9673
 103  160.1427
 104  118.8549
 105  113.5448
 106  -58.84119
 107  27.87394
 108  174.8707
 109  178.6703
 110  219.3865
 111  46.37543
 112  108.6535
 113  126.4843
 114  185.1293
 115  148.1715
 116  184.6848
 117  162.4337
 118  148.6228
 119  136.4373
 120  185.0772
 121  10.75224
 122  33.98872
 123  94.93583
 124  -13.29718
 125  11.47779
 126  116.4818
 127  191.1323
 128  59.82891
 129  59.60501
 130  132.9181
 131  52.2165
 132  167.7023
 133  183.7357
 134  152.0562
 135  110.1724
 136  133.8991
 137  99.87526
 138  197.5171
 139  277.4362
 140  164.9779
 141  -51.95972
 142  -53.05245
 143  188.6357
 144  224.086
 145  131.1953
 146  198.3954
 147  150.2598
 148  161.4072
 149  166.3214
 150  165.4187
 151  140.7614
 152  288.5128
 153  143.9197
 154  190.1674
 155  123.639
 156  69.30624
 157  44.75154
 158  153.7284
 159  318.9945
 160  276.7906
 161  248.6047
 162  229.8407
 163  227.5907
 164  185.2755
 165  238.4313
 166  91.50992
 167  144.7272
 168  170.9338
 169  224.751
 170  195.636
 171  176.9448
 172  146.1421
 173  210.217
 174  126.9804
 175  -29.35448
 176  93.00444
 177  168.898
 178  23.44624
 179  190.1852
 180  246.3613
 181  171.1069
 182  177.8566
 183  250.8557
 184  266.9151
 185  313.1873
 186  183.7551
 187  143.3055
 188  -14.94477
 189  22.078
 190  177.913
 191  239.1321
 192  256.2801
 193  258.2551
 194  168.1709
 195  168.1174
 196  179.9621
 197  116.5869
 198  70.48846
 199  98.15092
 200  -1.817486
 201  131.5064
 202  233.2811
 203  102.0946
 204  10.62126
 205  -26.10622
 206  25.74277
 207  169.2133
 208  327.7142
 209  225.8517
 210  95.37634
 211  19.44293
 212  -41.72058
 213  31.46947
 214  218.3489
 215  214.9114
 216  173.3078
 217  221.616
 218  168.1084
 219  209.2614
 220  206.1756
 221  241.0791
 222  222.3577
 223  214.8161
 224  182.6634
 225  179.1285
 226  169.1472
 227  174.3675
 228  207.1198
 229  107.746
 230  145.5794
 231  211.0457
 232  196.2666
 233  310.1689
 234  310.7325
 235  151.2704
 236  201.4027
 237  156.6701
 238  240.4506
 239  32.36472
 240  75.26134
 241  148.4362
 242  292.1208
 243  152.556
 244  93.92725
 245  58.23095
 246  89.96127
 247  123.6253
 248  59.89069
 249  215.1531
 250  333.3875
 251  244.5628
 252  88.87041
 253  121.837
 254  265.7325
 255  265.7006
 256  76.51535
 257  131.2087
 258  258.4237
 259  240.3294
 260  105.4725
 261  186.8377
 262  232.72
 263  133.2674
 264  253.8981
 265  296.7579
 266  328.476
 267  139.823
 268  200.3502
 269  119.387
 270  141.3329
 271  191.7495
 272  255.8691
 273  142.1424
 274  120.2132
 275  216.9238
 276  218.6687
 277  163.0572
 278  54.67903
 279  146.6313
 280  23.51009
 281  40.36478
 282  78.126
 283  35.74987
 284  183.7169
 285  126.2441
 286  127.5304
 287  19.9435
 288  41.42422
 289  186.9314
 290  217.9894
 291  226.4495
 292  152.2119
 293  85.14142
 294  39.92165
 295  80.72568
 296  127.5838
 297  163.321
 298  109.7015
 299  169.8928
 300  127.2331
 301  116.8132
 302  115.2166
 303  167.7386
 304  146.4928
 305  146.1926
 306  203.9328
 307  157.6106
 308  167.6451
 309  235.659
 310  218.8216
 311  232.4108
 312  236.4139
 313  184.4671
 314  159.6082
 315  235.8768
 316  266.8936
 317  254.4479
 318  31.08211
 319  -18.59055
 320  67.35601
 321  143.017
 322  80.39948
 323  118.9773
 324  251.303
 325  267.6555
 326  91.55717
 327  151.7161
 328  183.2269
 329  138.7871
 330  234.3041
 331  275.3699
 332  211.7421
 333  174.242
 334  94.87211
 335  136.2347
 336  119.2571
 337  84.53813
 338  81.07141
 339  157.7579
 340  65.55534
 341  110.4635
 342  175.0722
 343  262.9452
 344  154.8458
 345  18.33834
 346  8.758336
 347  212.1909
 348  291.8074
 349  140.0257
 350  144.3421
 351  153.2428
 352  145.4534
 353  93.04049
 354  114.4465
 355  221.3969
 356  229.3167
 357  215.6963
 358  111.3976
 359  189.2787
 360  96.82879
 361  0.6318041
 362  102.4148
 363  97.60983
 364  173.3648
 365  41.98672
 366  103.5682
 367  97.7847
 368  106.1949
 369  62.3565
 370  99.18034
 371  132.5989
 372  135.5259
 373  115.5483
 374  93.51562
 375  76.5155
 376  131.0245
 377  202.5839
 378  168.6843
 379  124.8572
 380  139.7361
 381  157.6091
 382  107.4133
 383  149.0783
 384  180.468
 385  102.7914
 386  58.11378
 387  100.8722
 388  143.0436
 389  233.508
 390  119.0671
 391  187.6046
 392  128.8305
 393  165.0198
 394  135.4162
 395  151.5391
 396  299.4551
 397  163.0579
 398  70.71326
 399  5.15541
 400  186.6767
 401  190.1517
 402  120.9151
 403  47.48497
 404  20.73947
 405  19.9478
 406  77.98239
 407  202.0106
 408  276.0347
 409  214.5512
 410  78.23331
 411  127.4008
 412  122.2327
 413  78.7938
 414  54.34144
 415  191.3744
 416  236.2768
 417  206.1591
 418  378.3888
 419  255.9994
 420  109.1956
 421  150.0349
 422  254.6162
 423  195.9997
 424  39.21777
 425  75.68098
 426  144.6191
 427  213.7611
 428  208.5725
 429  147.0372
 430  125.9569
 431  134.2174
 432  61.27425
 433  81.21239
 434  160.1078
 435  133.7751
 436  91.87389
 437  63.45629
 438  92.30449
 439  196.0095
 440  338.3319
 441  313.7971
 442  117.5193
 443  89.8139
 444  67.57864
 445  94.44026
 446  136.3535
 447  119.1498
 448  146.6826
 449  56.01247
 450  195.3765
 451  179.995
 452  186.5485
 453  95.88001
 454  118.0492
 455  206.202
 456  161.0267
 457  129.7823
 458  125.6024
 459  22.00249
 460  46.04316
 461  142.5996
 462  72.67764
 463  -28.39314
 464  35.82096
 465  67.50685
 466  196.601
 467  189.8049
 468  86.64066
 469  18.22701
 470  3.747745
 471  115.2932
 472  157.8101
 473  136.8596
 474  214.1047
 475  210.4561
 476  118.4757
 477  127.0182
 478  229.2433
 479  268.7756
 480  83.87816
 481  59.70868
 482  129.6037
 483  149.7887
 484  2.53931
 485  111.3327
 486  45.65543
 487  -91.07734
 488  33.30028
 489  164.9236
 490  281.2832
 491  210.9274
 492  227.4307
 493  196.4452
 494  143.1401
 495  105.6804
 496  153.3328
 497  154.6334
 498  154.091
 499  222.7504
 500  126.2841
 501  200.0276
 502  129.5439
 503  79.30178
 504  182.0089
 505  233.1334
 506  266.7849
 507  368.9001
 508  259.7254
 509  408.9882
 510  500.9509
 511  742.1531
