# Input file       =  1191523670.116382_cleaned.dat
# Candidate        =  PSR_0332+5434
# Telescope        =  AR
# Epoch_topo       =  58034.783010606268
# Epoch_bary       =  N/A
# T_sample         =  0.002
# Data Folded      =  7208960
# Data Avg         =  0.0111946148057244
# Data StdDev      =  1.00009746380946 
# Profile Bins     =  512
# Profile Avg      =  157.607363055713 
# Profile StdDev   =  118.670740768831 
# Reduced chi-sqr  =  1.774
# Prob(Noise)      <  1.62e-24   (~10.2 sigma)
# P_topo (ms)      =  714.477236916409  +/- 0.000161
# P'_topo (s/s)    =  -0                +/- 8.63e-11
# P''_topo (s/s^2) =  0                 +/- 3.88e-14
# P_bary (ms)      =  N/A
# P'_bary (s/s)    =  N/A
# P''_bary (s/s^2) =  N/A
# P_orb (s)        =  N/A
# asin(i)/c (s)    =  N/A
# eccentricity     =  N/A
# w (rad)          =  N/A
# T_peri           =  N/A
######################################################
   0  1096.897
   1  980.0305
   2  819.8832
   3  404.132
   4  259.1641
   5  264.8582
   6  151.9131
   7  176.094
   8  151.4011
   9  290.1939
  10  245.3336
  11  215.1694
  12  262.7145
  13  288.8131
  14  271.7135
  15  181.429
  16  183.7208
  17  255.0633
  18  216.7618
  19  195.5835
  20  300.4917
  21  106.3959
  22  112.2756
  23  142.9391
  24  139.6419
  25  132.632
  26  183.3109
  27  164.1451
  28  55.16914
  29  135.4038
  30  133.5306
  31  219.6729
  32  195.5681
  33  220.954
  34  188.8958
  35  206.0871
  36  77.18164
  37  132.4
  38  198.0506
  39  288.7961
  40  278.3411
  41  214.0611
  42  229.8439
  43  250.9681
  44  291.432
  45  282.7914
  46  228.3986
  47  186.2715
  48  218.2887
  49  266.7185
  50  189.0808
  51  153.741
  52  161.1433
  53  64.82249
  54  176.3707
  55  168.6533
  56  215.5777
  57  314.8885
  58  273.7078
  59  255.3945
  60  260.4991
  61  290.3988
  62  340.68
  63  278.5213
  64  217.2454
  65  191.1401
  66  45.48548
  67  153.9448
  68  160.9046
  69  76.64342
  70  210.1841
  71  116.4835
  72  159.1504
  73  264.6595
  74  202.1876
  75  27.10645
  76  -86.89454
  77  -2.090955
  78  70.0886
  79  133.6915
  80  145.4829
  81  128.0388
  82  55.83018
  83  68.14294
  84  26.13805
  85  2.00073
  86  83.13477
  87  85.1326
  88  200.8167
  89  271.4266
  90  248.8542
  91  179.2901
  92  20.99565
  93  161.5431
  94  141.0964
  95  157.4797
  96  113.8092
  97  195.3815
  98  141.8447
  99  165.5693
 100  166.0533
 101  121.772
 102  90.49747
 103  173.9416
 104  206.1857
 105  49.43942
 106  159.1129
 107  271.4537
 108  150.8669
 109  93.2128
 110  85.79403
 111  94.15892
 112  53.69276
 113  38.42343
 114  212.8307
 115  146.1218
 116  111.2283
 117  159.4204
 118  108.4863
 119  137.049
 120  20.67486
 121  101.2959
 122  12.77629
 123  109.2444
 124  258.8539
 125  224.4498
 126  181.0117
 127  134.3298
 128  46.45181
 129  19.66913
 130  105.2902
 131  169.8856
 132  21.07075
 133  -19.96031
 134  -1.887048
 135  125.4082
 136  203.5759
 137  205.3871
 138  146.6559
 139  73.4451
 140  1.631939
 141  94.99866
 142  79.6332
 143  33.98772
 144  280.3837
 145  265.1275
 146  237.1282
 147  65.95623
 148  57.47267
 149  100.1865
 150  154.5572
 151  268.0963
 152  56.46876
 153  145.1454
 154  99.4505
 155  137.1877
 156  188.2416
 157  120.4511
 158  126.4512
 159  160.7386
 160  200.6542
 161  154.8044
 162  81.97704
 163  93.63533
 164  62.2439
 165  267.8532
 166  212.0462
 167  168.4542
 168  298.9498
 169  154.4981
 170  119.4146
 171  189.8998
 172  194.4732
 173  290.7028
 174  209.7033
 175  301.3796
 176  211.9826
 177  54.0868
 178  -16.42976
 179  31.82558
 180  44.72169
 181  59.77853
 182  33.16788
 183  11.55028
 184  -6.539319
 185  42.98649
 186  127.9199
 187  150.9664
 188  229.4809
 189  127.5521
 190  86.47018
 191  203.6093
 192  141.3494
 193  15.62335
 194  191.1077
 195  165.0493
 196  211.4829
 197  206.9081
 198  119.2571
 199  48.81227
 200  101.8421
 201  104.8454
 202  74.54176
 203  31.19457
 204  157.9461
 205  162.494
 206  115.5153
 207  93.81625
 208  103.9839
 209  65.57982
 210  51.98001
 211  88.27633
 212  274.6828
 213  237.9529
 214  174.4999
 215  175.2184
 216  213.8351
 217  193.3062
 218  197.061
 219  159.86
 220  204.7891
 221  148.5548
 222  227.1596
 223  117.5532
 224  41.63715
 225  58.10825
 226  196.978
 227  181.9448
 228  244.7375
 229  364.138
 230  245.5812
 231  56.92187
 232  177.1445
 233  124.0702
 234  103.6247
 235  119.6794
 236  301.7314
 237  186.6991
 238  24.97489
 239  130.1385
 240  225.7397
 241  126.6113
 242  146.4404
 243  86.79361
 244  190.4945
 245  77.65417
 246  93.32489
 247  220.5222
 248  231.8539
 249  124.842
 250  180.7555
 251  67.96301
 252  106.0424
 253  104.6071
 254  240.394
 255  164.209
 256  64.03181
 257  153.8853
 258  132.6093
 259  87.12306
 260  60.45528
 261  90.02393
 262  78.93159
 263  138.9794
 264  96.30162
 265  207.1764
 266  189.97
 267  135.8822
 268  58.22007
 269  10.60166
 270  85.38173
 271  315.3473
 272  288.0459
 273  158.8249
 274  94.46766
 275  68.67981
 276  94.9986
 277  -79.20435
 278  15.8951
 279  220.9737
 280  115.5619
 281  143.0321
 282  40.48398
 283  30.35801
 284  -84.90025
 285  60.71039
 286  91.24181
 287  88.51011
 288  175.6938
 289  207.2313
 290  216.9714
 291  72.65168
 292  41.52496
 293  8.040422
 294  80.55244
 295  165.5301
 296  181.324
 297  276.8481
 298  219.5075
 299  166.1501
 300  230.7066
 301  196.6506
 302  234.7715
 303  323.3525
 304  293.4313
 305  116.1233
 306  171.664
 307  76.25105
 308  23.94361
 309  77.67913
 310  162.5516
 311  118.2278
 312  98.82905
 313  172.8872
 314  192.7611
 315  71.63179
 316  -73.99599
 317  -1.480421
 318  95.16053
 319  119.6251
 320  248.5876
 321  183.3958
 322  167.8802
 323  279.5612
 324  168.8537
 325  153.6621
 326  51.24814
 327  139.4173
 328  168.6312
 329  207.8512
 330  125.0614
 331  184.1946
 332  176.9141
 333  241.1515
 334  216.7204
 335  209.3604
 336  205.7656
 337  187.0997
 338  68.80906
 339  203.6523
 340  237.7055
 341  259.5482
 342  240.9054
 343  226.6653
 344  215.9362
 345  192.8697
 346  177.5358
 347  95.728
 348  35.34986
 349  131.9063
 350  189.5105
 351  169.6702
 352  248.8337
 353  268.8207
 354  254.5261
 355  261.5551
 356  180.1777
 357  -4.360726
 358  -31.47448
 359  13.15014
 360  171.6293
 361  247.6672
 362  319.453
 363  210.1954
 364  58.13517
 365  14.38569
 366  17.10671
 367  214.073
 368  196.4589
 369  164.642
 370  217.8249
 371  257.8033
 372  217.6157
 373  137.4691
 374  78.93265
 375  97.42274
 376  118.0157
 377  207.008
 378  108.1871
 379  83.55556
 380  -7.337303
 381  13.962
 382  50.61523
 383  134.8812
 384  95.69453
 385  219.8864
 386  161.1008
 387  77.29485
 388  29.18152
 389  5.129574
 390  115.2356
 391  180.0099
 392  172.8478
 393  221.4526
 394  234.6803
 395  117.6294
 396  -64.15118
 397  -34.55757
 398  112.9073
 399  233.4748
 400  175.3171
 401  139.5599
 402  29.55926
 403  1.543185
 404  136.1254
 405  218.515
 406  227.1639
 407  361.6737
 408  302.205
 409  129.4673
 410  99.7579
 411  84.47906
 412  144.9082
 413  180.9025
 414  185.3531
 415  80.45773
 416  119.9788
 417  159.4242
 418  120.6464
 419  98.466
 420  73.37875
 421  97.86829
 422  129.1678
 423  133.6674
 424  192.6168
 425  85.30183
 426  -46.7319
 427  -39.31824
 428  18.9122
 429  184.9362
 430  49.26129
 431  8.697405
 432  167.927
 433  94.51855
 434  101.5903
 435  135.2324
 436  319.2546
 437  280.2996
 438  241.2505
 439  124.0086
 440  110.6755
 441  124.9262
 442  -61.02118
 443  102.8549
 444  202.4321
 445  116.3743
 446  73.45884
 447  77.21716
 448  86.84027
 449  194.8196
 450  225.2113
 451  190.9308
 452  199.3412
 453  253.8079
 454  57.61788
 455  26.96034
 456  169.3574
 457  230.0337
 458  38.5702
 459  44.89501
 460  133.7145
 461  112.9409
 462  209.3173
 463  37.75839
 464  75.27045
 465  67.51102
 466  33.05199
 467  147.87
 468  116.2583
 469  95.91974
 470  82.36239
 471  193.8751
 472  132.2921
 473  121.6298
 474  163.6122
 475  259.9857
 476  191.6112
 477  161.8282
 478  103.2076
 479  153.4933
 480  112.9528
 481  84.79432
 482  81.37454
 483  231.639
 484  262.8889
 485  257.4612
 486  243.8752
 487  296.3898
 488  247.1483
 489  219.7834
 490  105.0601
 491  252.9095
 492  301.9012
 493  303.8795
 494  310.5747
 495  160.2202
 496  219.3285
 497  149.3131
 498  221.7305
 499  291.3657
 500  246.6906
 501  161.8737
 502  204.8604
 503  146.9106
 504  158.1931
 505  270.1642
 506  273.05
 507  338.7508
 508  371.774
 509  517.5343
 510  685.8159
 511  909.4486
