# Input file       =  1192557560.121388_cleaned.dat
# Candidate        =  PSR_0332+5434
# Telescope        =  AR
# Epoch_topo       =  58046.749330108658
# Epoch_bary       =  N/A
# T_sample         =  0.002
# Data Folded      =  7143424
# Data Avg         =  0.0389452793960347
# Data StdDev      =  1.00017377550213 
# Profile Bins     =  512
# Profile Avg      =  543.288236167548 
# Profile StdDev   =  118.139110598197 
# Reduced chi-sqr  =  1.348
# Prob(Noise)      <  2.23e-07   (~5.0 sigma)
# P_topo (ms)      =  714.485969000585  +/- 0.000235
# P'_topo (s/s)    =  -0                +/- 1.27e-10
# P''_topo (s/s^2) =  0                 +/- 5.78e-14
# P_bary (ms)      =  N/A
# P'_bary (s/s)    =  N/A
# P''_bary (s/s^2) =  N/A
# P_orb (s)        =  N/A
# asin(i)/c (s)    =  N/A
# eccentricity     =  N/A
# w (rad)          =  N/A
# T_peri           =  N/A
######################################################
   0  1176.558
   1  1073.364
   2  891.137
   3  634.1129
   4  586.1323
   5  609.1053
   6  514.1622
   7  454.3616
   8  452.8909
   9  546.022
  10  483.3446
  11  500.023
  12  518.8789
  13  633.0041
  14  682.0787
  15  564.1039
  16  605.5181
  17  557.9644
  18  547.7891
  19  403.54
  20  360.9258
  21  496.9916
  22  504.3487
  23  583.3218
  24  529.9382
  25  594.8085
  26  578.0077
  27  532.1995
  28  532.0526
  29  586.7426
  30  522.1384
  31  588.5563
  32  593.3258
  33  554.8831
  34  552.3668
  35  622.2687
  36  499.408
  37  444.5765
  38  538.8203
  39  504.2693
  40  452.0739
  41  447.933
  42  498.5661
  43  470.4114
  44  425.3997
  45  447.5982
  46  553.8345
  47  524.1913
  48  447.9663
  49  357.6439
  50  460.3973
  51  472.2372
  52  471.3582
  53  527.7047
  54  630.231
  55  528.1493
  56  407.9946
  57  470.5927
  58  540.84
  59  485.1335
  60  486.6139
  61  571.993
  62  496.4345
  63  518.6382
  64  474.7397
  65  427.8578
  66  400.9347
  67  439.1377
  68  475.2953
  69  494.1906
  70  533.5212
  71  494.9067
  72  475.7315
  73  459.1339
  74  448.4408
  75  494.5836
  76  397.0467
  77  357.3153
  78  494.268
  79  478.7127
  80  418.1856
  81  436.7226
  82  532.0413
  83  453.9087
  84  465.9005
  85  531.3088
  86  567.68
  87  498.2545
  88  399.3046
  89  478.2585
  90  594.7745
  91  634.9862
  92  569.1679
  93  461.9606
  94  456.3149
  95  429.7477
  96  370.7364
  97  439.2102
  98  534.3803
  99  481.3995
 100  412.4445
 101  400.8609
 102  525.0544
 103  537.1989
 104  481.9989
 105  412.3129
 106  417.6295
 107  473.3556
 108  453.5565
 109  354.9679
 110  412.4326
 111  366.3122
 112  449.2478
 113  449.7802
 114  417.8322
 115  564.9534
 116  576.1989
 117  594.4156
 118  586.7004
 119  577.7401
 120  484.3466
 121  363.1496
 122  509.7728
 123  626.6885
 124  519.5746
 125  522.0953
 126  609.0095
 127  692.0127
 128  654.7917
 129  671.1436
 130  601.6857
 131  487.5778
 132  469.8458
 133  543.6226
 134  577.8278
 135  530.7249
 136  498.4984
 137  483.4261
 138  437.5255
 139  553.871
 140  472.8776
 141  486.3232
 142  596.6396
 143  577.9102
 144  524.2595
 145  577.0948
 146  444.4677
 147  390.0573
 148  400.6438
 149  424.9794
 150  555.9305
 151  489.4384
 152  515.0635
 153  552.6697
 154  525.2551
 155  683.5653
 156  692.1154
 157  617.9398
 158  562.3724
 159  566.1265
 160  533.2193
 161  429.0655
 162  482.5898
 163  590.0553
 164  680.3857
 165  543.3108
 166  544.42
 167  516.8225
 168  532.6248
 169  546.053
 170  557.2103
 171  453.0124
 172  457.9013
 173  553.2697
 174  680.8635
 175  620.4684
 176  584.9526
 177  672.6495
 178  658.599
 179  618.4784
 180  567.6199
 181  542.0744
 182  592.3903
 183  560.9026
 184  478.6931
 185  433.7578
 186  555.3953
 187  524.8161
 188  647.8013
 189  551.9963
 190  466.7114
 191  527.9027
 192  534.6279
 193  557.8723
 194  553.6516
 195  530.4746
 196  442.5064
 197  498.5145
 198  708.0449
 199  672.7985
 200  507.4221
 201  501.932
 202  434.7571
 203  378.7955
 204  489.2869
 205  637.3177
 206  509.1416
 207  485.1931
 208  461.4723
 209  456.9147
 210  497.7911
 211  580.3242
 212  575.6079
 213  580.1558
 214  519.4633
 215  510.2587
 216  700.8558
 217  660.0663
 218  552.3207
 219  566.0859
 220  657.8959
 221  577.887
 222  592.7745
 223  600.1788
 224  543.9131
 225  570.8083
 226  566.6918
 227  443.1841
 228  601.3431
 229  609.2426
 230  622.3969
 231  691.712
 232  604.8734
 233  562.4612
 234  526.3652
 235  525.0646
 236  617.5225
 237  578.1504
 238  603.9092
 239  519.2418
 240  515.1481
 241  591.0213
 242  582.7922
 243  562.236
 244  542.9343
 245  498.4129
 246  505.2457
 247  578.8939
 248  496.8183
 249  490.8325
 250  570.7344
 251  454.2765
 252  532.2922
 253  444.5122
 254  520.7214
 255  577.9828
 256  502.7711
 257  459.0115
 258  577.9175
 259  582.516
 260  490.2336
 261  400.3408
 262  500.626
 263  460.0929
 264  358.915
 265  409.6909
 266  477.3296
 267  541.7242
 268  705.2241
 269  537.7615
 270  451.9684
 271  475.6608
 272  484.5045
 273  540.3851
 274  517.8535
 275  491.14
 276  560.3472
 277  545.257
 278  473.4705
 279  581.3784
 280  715.5401
 281  632.7326
 282  509.8728
 283  503.1497
 284  596.8409
 285  536.6882
 286  576.0305
 287  500.0035
 288  405.5573
 289  505.6894
 290  476.9066
 291  418.7493
 292  485.2726
 293  532.9725
 294  503.9989
 295  589.9348
 296  612.2
 297  507.1252
 298  531.2353
 299  429.2996
 300  357.6852
 301  452.1175
 302  643.8791
 303  562.2277
 304  546.8793
 305  576.6899
 306  574.4472
 307  662.5157
 308  712.247
 309  605.6743
 310  564.3182
 311  721.9808
 312  638.7535
 313  521.3862
 314  653.7595
 315  663.47
 316  603.1654
 317  496.9026
 318  387.3684
 319  570.0607
 320  627.965
 321  586.2202
 322  600.3285
 323  712.8959
 324  740.0701
 325  624.8774
 326  546.2548
 327  554.0847
 328  658.8372
 329  656.9477
 330  691.8537
 331  608.5044
 332  526.3703
 333  495.0878
 334  528.8543
 335  659.2782
 336  462.2612
 337  494.359
 338  659.934
 339  548.2676
 340  525.2402
 341  449.4676
 342  522.4545
 343  508.4881
 344  436.4314
 345  483.3386
 346  507.7623
 347  434.0499
 348  507.5227
 349  600.5958
 350  468.8915
 351  543.8412
 352  623.306
 353  414.3188
 354  447.4949
 355  509.0858
 356  527.1729
 357  520.9021
 358  555.6586
 359  639.3146
 360  535.7134
 361  406.3447
 362  389.9389
 363  532.6196
 364  644.2658
 365  640.6766
 366  540.0428
 367  478.0975
 368  466.2977
 369  437.414
 370  448.0312
 371  524.4434
 372  615.7718
 373  736.071
 374  601.3432
 375  625.7527
 376  633.9736
 377  602.7059
 378  688.4034
 379  596.9543
 380  603.5381
 381  654.733
 382  396.2731
 383  426.2164
 384  384.4532
 385  451.4156
 386  495.1902
 387  594.582
 388  614.9733
 389  595.5595
 390  575.0411
 391  616.2954
 392  608.7452
 393  529.3571
 394  573.0488
 395  631.7763
 396  579.2068
 397  546.4528
 398  655.5627
 399  584.4744
 400  490.6262
 401  529.1157
 402  596.3211
 403  559.9838
 404  666.1302
 405  669.7634
 406  576.8782
 407  554.1747
 408  564.1189
 409  553.5874
 410  531.0344
 411  573.7939
 412  589.2479
 413  565.0956
 414  552.4511
 415  423.2031
 416  480.3292
 417  516.2587
 418  429.722
 419  498.8858
 420  451.353
 421  544.034
 422  608.1056
 423  561.3831
 424  476.4381
 425  525.726
 426  529.797
 427  471.5274
 428  393.6302
 429  573.9341
 430  591.9279
 431  498.0476
 432  567.722
 433  533.7756
 434  379.5113
 435  482.5923
 436  652.1411
 437  687.8482
 438  723.8203
 439  703.9207
 440  666.1699
 441  712.6304
 442  661.7145
 443  707.2561
 444  560.3347
 445  581.7468
 446  528.8303
 447  460.3617
 448  524.1851
 449  600.3958
 450  568.8292
 451  569.9191
 452  571.4595
 453  523.7637
 454  535.6674
 455  590.0736
 456  469.3633
 457  517.9589
 458  612.6409
 459  614.8636
 460  561.9209
 461  630.9706
 462  642.0265
 463  567.4952
 464  409.6334
 465  478.7288
 466  474.9874
 467  411.7323
 468  558.633
 469  626.026
 470  644.3758
 471  527.6422
 472  447.3769
 473  570.4979
 474  565.3832
 475  502.9006
 476  557.8452
 477  425.3607
 478  483.0908
 479  570.6944
 480  522.2705
 481  485.5803
 482  423.5676
 483  433.042
 484  532.1207
 485  578.8176
 486  583.4724
 487  553.9188
 488  547.1214
 489  524.321
 490  539.3554
 491  495.3762
 492  494.1994
 493  635.5503
 494  690.0403
 495  612.6393
 496  576.1785
 497  585.1945
 498  477.5885
 499  439.784
 500  449.6664
 501  508.8925
 502  591.8775
 503  666.2822
 504  726.6976
 505  664.5532
 506  556.6379
 507  664.1029
 508  640.9764
 509  961.0912
 510  1200.497
 511  1210.837
