# Input file       =  1195000152.117789_cleaned.dat
# Candidate        =  PSR_0332+5434
# Telescope        =  AR
# Epoch_topo       =  58075.020070807746
# Epoch_bary       =  N/A
# T_sample         =  0.002
# Data Folded      =  7340032
# Data Avg         =  0.0904007039255173
# Data StdDev      =  1.00033941487739 
# Profile Bins     =  512
# Profile Avg      =  1295.7401156897  
# Profile StdDev   =  119.773675550628 
# Reduced chi-sqr  =  0.745
# Prob(Noise)      <  1   (~0.0 sigma)
# P_topo (ms)      =  714.512612586619  +/- 3.98e-05
# P'_topo (s/s)    =  -0                +/- 2.1e-11
# P''_topo (s/s^2) =  0                 +/- 9.27e-15
# P_bary (ms)      =  N/A
# P'_bary (s/s)    =  N/A
# P''_bary (s/s^2) =  N/A
# P_orb (s)        =  N/A
# asin(i)/c (s)    =  N/A
# eccentricity     =  N/A
# w (rad)          =  N/A
# T_peri           =  N/A
######################################################
   0  1555.034
   1  1517.672
   2  1390.092
   3  1353.086
   4  1277.757
   5  1330.022
   6  1329.953
   7  1266.674
   8  1242.339
   9  1241.255
  10  1260.667
  11  1314.557
  12  1240.504
  13  1328.075
  14  1312.172
  15  1391.272
  16  1401.096
  17  1357.193
  18  1352.268
  19  1356.636
  20  1290.082
  21  1214.735
  22  1167.26
  23  1276.934
  24  1372.841
  25  1268.152
  26  1248.36
  27  1340.297
  28  1399.995
  29  1283.916
  30  1326.16
  31  1254.791
  32  1265.046
  33  1302.222
  34  1343.355
  35  1390.308
  36  1216.991
  37  1352.179
  38  1341.262
  39  1268.966
  40  1297.272
  41  1304.654
  42  1354.788
  43  1333.378
  44  1306.541
  45  1365.499
  46  1240.545
  47  1228.479
  48  1357.32
  49  1318.295
  50  1293.071
  51  1218.942
  52  1315.873
  53  1403.263
  54  1339.611
  55  1391.58
  56  1391.549
  57  1291.134
  58  1309.041
  59  1329.895
  60  1336.695
  61  1319.732
  62  1385.141
  63  1386.93
  64  1311.047
  65  1264.473
  66  1384.699
  67  1371.454
  68  1210.415
  69  1265.252
  70  1249.366
  71  1263.664
  72  1235.584
  73  1220.101
  74  1311.326
  75  1281.624
  76  1269.042
  77  1297.984
  78  1315.901
  79  1290.788
  80  1351.135
  81  1330.999
  82  1353.013
  83  1373.002
  84  1343.58
  85  1436.256
  86  1432.928
  87  1423.494
  88  1389.489
  89  1331.739
  90  1309.025
  91  1340.891
  92  1348.476
  93  1249.529
  94  1184.833
  95  1342.65
  96  1375.286
  97  1394.47
  98  1412.503
  99  1463.593
 100  1324.2
 101  1331.087
 102  1368.03
 103  1453.772
 104  1344.88
 105  1336.262
 106  1411.665
 107  1351.834
 108  1290.919
 109  1302.545
 110  1377.418
 111  1321.653
 112  1359.736
 113  1438.935
 114  1345.332
 115  1280.092
 116  1361.547
 117  1428.892
 118  1320.273
 119  1346.874
 120  1487.35
 121  1482.503
 122  1392.562
 123  1281.935
 124  1283.646
 125  1327.766
 126  1290.164
 127  1308.936
 128  1287.869
 129  1317.501
 130  1259.083
 131  1296.853
 132  1285.901
 133  1266.108
 134  1346.086
 135  1447.175
 136  1353.216
 137  1381.15
 138  1499.776
 139  1372.257
 140  1378.116
 141  1448.01
 142  1514.517
 143  1436.754
 144  1342.113
 145  1274.96
 146  1304.534
 147  1260.404
 148  1364.428
 149  1420.13
 150  1309.094
 151  1331.049
 152  1312.874
 153  1334.305
 154  1201.511
 155  1245.738
 156  1267.978
 157  1204.798
 158  1185.39
 159  1230.36
 160  1273.18
 161  1168.635
 162  1225.229
 163  1393.084
 164  1372.467
 165  1264.875
 166  1312.891
 167  1239.05
 168  1305.818
 169  1426.506
 170  1407.593
 171  1435.765
 172  1288.416
 173  1235.063
 174  1284.882
 175  1250.916
 176  1304.421
 177  1299.096
 178  1306.457
 179  1277.233
 180  1402.481
 181  1424.723
 182  1346.72
 183  1356.423
 184  1296.138
 185  1312.312
 186  1221.374
 187  1257.176
 188  1343.221
 189  1365.173
 190  1310.449
 191  1271.678
 192  1317.706
 193  1382.318
 194  1346.584
 195  1357.546
 196  1332.147
 197  1252.382
 198  1309.042
 199  1351.939
 200  1368.465
 201  1291.453
 202  1263.842
 203  1312.66
 204  1350.397
 205  1249.439
 206  1271.964
 207  1278.055
 208  1155.613
 209  1218.136
 210  1275.132
 211  1317.849
 212  1371.355
 213  1406.828
 214  1382.039
 215  1296.107
 216  1248.384
 217  1289.634
 218  1315.93
 219  1335.548
 220  1347.633
 221  1354.171
 222  1309.262
 223  1257.532
 224  1246.385
 225  1271.585
 226  1263.511
 227  1299.394
 228  1355.303
 229  1370.788
 230  1317.027
 231  1234.1
 232  1251.545
 233  1235.676
 234  1313.207
 235  1294.578
 236  1267.42
 237  1241.204
 238  1269.662
 239  1219.629
 240  1118.66
 241  1179.764
 242  1312.873
 243  1305.274
 244  1192.166
 245  1163.39
 246  1206.423
 247  1099.544
 248  1228.958
 249  1267.317
 250  1238.239
 251  1191.679
 252  1226.327
 253  1348.25
 254  1270.534
 255  1139.283
 256  1105.892
 257  1123.904
 258  1096.924
 259  1144.306
 260  1167.056
 261  1258.183
 262  1250.381
 263  1376.471
 264  1362.168
 265  1248.196
 266  1281.139
 267  1383.134
 268  1304.552
 269  1268.907
 270  1334.399
 271  1374.373
 272  1304.053
 273  1341.726
 274  1391.094
 275  1352.985
 276  1247.165
 277  1355.361
 278  1361.468
 279  1206.84
 280  1221.978
 281  1267.498
 282  1275.021
 283  1215.543
 284  1331.183
 285  1344.671
 286  1217.178
 287  1284.123
 288  1232.722
 289  1200.759
 290  1215.827
 291  1244.415
 292  1228.913
 293  1159.412
 294  1317.041
 295  1389.884
 296  1241.447
 297  1160.79
 298  1273.951
 299  1210.259
 300  1186.83
 301  1155.362
 302  1214.142
 303  1291.451
 304  1381.207
 305  1320.043
 306  1237.101
 307  1165.857
 308  1107.678
 309  1202.123
 310  1374.556
 311  1257.731
 312  1196.597
 313  1210.425
 314  1291.265
 315  1220.136
 316  1196.317
 317  1260.008
 318  1206.232
 319  1069.976
 320  1189.624
 321  1345.127
 322  1326.533
 323  1222.387
 324  1245.882
 325  1282.788
 326  1200.519
 327  1239.535
 328  1336.92
 329  1322.509
 330  1220.765
 331  1233.544
 332  1235.703
 333  1142.268
 334  1170.205
 335  1238.958
 336  1324.461
 337  1337.76
 338  1200.557
 339  1298.006
 340  1258.949
 341  1367.479
 342  1322.061
 343  1248.087
 344  1306.921
 345  1304.797
 346  1332.388
 347  1218.294
 348  1166.476
 349  1272.955
 350  1187.532
 351  1162.675
 352  1260.539
 353  1391.146
 354  1350.584
 355  1400.418
 356  1346.367
 357  1270.981
 358  1287.255
 359  1347.01
 360  1382.22
 361  1238.01
 362  1261.693
 363  1279.487
 364  1298.165
 365  1320.147
 366  1353.906
 367  1385.549
 368  1378.23
 369  1295.266
 370  1276.885
 371  1312.693
 372  1332.491
 373  1337.93
 374  1333.129
 375  1383.057
 376  1309.997
 377  1303.876
 378  1245.324
 379  1297.725
 380  1261.85
 381  1250.39
 382  1325.208
 383  1355.338
 384  1304.486
 385  1253.142
 386  1189.814
 387  1304.858
 388  1337.097
 389  1269.983
 390  1192.956
 391  1190.625
 392  1255.218
 393  1218.935
 394  1237.436
 395  1253.647
 396  1321.472
 397  1185.273
 398  1182.099
 399  1256.197
 400  1237.957
 401  1187.234
 402  1241.186
 403  1323.497
 404  1267.718
 405  1180.363
 406  1178.409
 407  1359.807
 408  1331.959
 409  1336.923
 410  1258.576
 411  1287.013
 412  1200.338
 413  1263.844
 414  1196.378
 415  1284.129
 416  1272.706
 417  1349.584
 418  1373.575
 419  1266.952
 420  1273.806
 421  1346.987
 422  1199.217
 423  1255.844
 424  1352.879
 425  1384.446
 426  1334.837
 427  1224.823
 428  1348.949
 429  1306.638
 430  1277.164
 431  1314.694
 432  1271.93
 433  1212.449
 434  1267.549
 435  1340.401
 436  1362.494
 437  1374.03
 438  1359.583
 439  1404.609
 440  1369.454
 441  1361.114
 442  1354.776
 443  1298.819
 444  1257.204
 445  1288.048
 446  1330.268
 447  1322.268
 448  1283.644
 449  1191.51
 450  1211.783
 451  1144.369
 452  1242.052
 453  1328.921
 454  1260.595
 455  1242.49
 456  1297.368
 457  1293.505
 458  1205.149
 459  1277.928
 460  1354.096
 461  1311.14
 462  1092.162
 463  1142.284
 464  1265.866
 465  1179.649
 466  1127.107
 467  1234.045
 468  1224.768
 469  1214.081
 470  1189.684
 471  1296.788
 472  1333.415
 473  1310.734
 474  1318.187
 475  1369.315
 476  1287.232
 477  1230.625
 478  1187.126
 479  1219.486
 480  1357.086
 481  1362.561
 482  1348.748
 483  1278.226
 484  1256.232
 485  1243.201
 486  1307.369
 487  1231.842
 488  1338.184
 489  1376.63
 490  1280.145
 491  1185.732
 492  1193.38
 493  1274.533
 494  1194.322
 495  1171.19
 496  1379.775
 497  1473.387
 498  1309.527
 499  1312.634
 500  1334.011
 501  1316.273
 502  1274.423
 503  1276.078
 504  1419.23
 505  1429.855
 506  1366.144
 507  1290.183
 508  1297.887
 509  1373.91
 510  1474.678
 511  1465.838
