# Input file       =  1195329842.107446_cleaned.dat
# Candidate        =  PSR_0332+5434
# Telescope        =  AR
# Epoch_topo       =  58078.835927169515
# Epoch_bary       =  N/A
# T_sample         =  0.002
# Data Folded      =  7340032
# Data Avg         =  0.07235932441198 
# Data StdDev      =  1.00005463717608 
# Profile Bins     =  512
# Profile Avg      =  1037.03823644636 
# Profile StdDev   =  119.739578251757 
# Reduced chi-sqr  =  0.547
# Prob(Noise)      <  1   (~0.0 sigma)
# P_topo (ms)      =  714.516198985206  +/- 6.92e-05
# P'_topo (s/s)    =  -0                +/- 3.65e-11
# P''_topo (s/s^2) =  0                 +/- 1.61e-14
# P_bary (ms)      =  N/A
# P'_bary (s/s)    =  N/A
# P''_bary (s/s^2) =  N/A
# P_orb (s)        =  N/A
# asin(i)/c (s)    =  N/A
# eccentricity     =  N/A
# w (rad)          =  N/A
# T_peri           =  N/A
######################################################
   0  1343.03
   1  1296.149
   2  1196.074
   3  1146.517
   4  1095.109
   5  1066.986
   6  937.2459
   7  930.2425
   8  947.4042
   9  1033.151
  10  1007.359
  11  1050.703
  12  1080.237
  13  1070.457
  14  1086.376
  15  1123.477
  16  1108.234
  17  1113.576
  18  1133.584
  19  1063.13
  20  1035.316
  21  1004.535
  22  1053.51
  23  1053.634
  24  1045.9
  25  1002.662
  26  1056.594
  27  1135.323
  28  1072.335
  29  1030.044
  30  1053.786
  31  1008.684
  32  1073.422
  33  1035.269
  34  1004.54
  35  916.4832
  36  890.8264
  37  1012.554
  38  1078.958
  39  999.4575
  40  988.9782
  41  942.6913
  42  1002.11
  43  946.0227
  44  1008.504
  45  991.8807
  46  1036.941
  47  1066.85
  48  1104.253
  49  1055.217
  50  987.7687
  51  1003.423
  52  1093.674
  53  1054.778
  54  941.9572
  55  947.2974
  56  986.1965
  57  1051.548
  58  1031.846
  59  1029.833
  60  1032.355
  61  1050.182
  62  1125.284
  63  1088.577
  64  979.7366
  65  1000.072
  66  993.1963
  67  1058.903
  68  1056.139
  69  989.8483
  70  1052.687
  71  1092.59
  72  1139.037
  73  1175.4
  74  1043.207
  75  1014.31
  76  1057.769
  77  1121.074
  78  1005.775
  79  967.2598
  80  975.3952
  81  1077.256
  82  1069.596
  83  1106.329
  84  984.6069
  85  892.2363
  86  1020.571
  87  1069.12
  88  1032.459
  89  979.8071
  90  1021.421
  91  1059.707
  92  986.0803
  93  971.6956
  94  960.4193
  95  1041.275
  96  1071.794
  97  1022.855
  98  968.481
  99  1012.1
 100  1062.111
 101  1078.393
 102  1004.925
 103  1031.288
 104  1127.972
 105  1159.024
 106  1152.12
 107  1107.98
 108  1071.436
 109  1007.92
 110  1049.072
 111  1088.058
 112  1084.936
 113  1038.074
 114  1089.792
 115  1065.611
 116  1054.55
 117  1003.66
 118  1067.871
 119  1082.178
 120  1081.578
 121  1059.016
 122  977.2632
 123  1030.816
 124  1015.64
 125  1113.318
 126  1120.109
 127  1021.312
 128  998.8606
 129  1031.769
 130  1052.648
 131  1070.576
 132  1054.608
 133  990.1453
 134  1015.579
 135  954.4505
 136  913.3741
 137  1014.909
 138  1073.071
 139  951.1119
 140  980.5302
 141  984.9417
 142  1001.97
 143  998.2953
 144  1014.796
 145  1019.606
 146  1016.884
 147  1015.632
 148  1087.966
 149  1032.625
 150  975.3237
 151  954.4225
 152  967.0772
 153  980.5596
 154  993.5471
 155  1083.122
 156  1091.135
 157  1037.316
 158  999.8548
 159  993.286
 160  970.9003
 161  1015.336
 162  1086.925
 163  1060.091
 164  1080.948
 165  1070.811
 166  1047.385
 167  989.0503
 168  931.7833
 169  942.6201
 170  980.8843
 171  1054.283
 172  1087.695
 173  1046.674
 174  984.6666
 175  932.7356
 176  942.8845
 177  974.0786
 178  950.1605
 179  1018.927
 180  1085.623
 181  1155.74
 182  1080.378
 183  976.8429
 184  955.0037
 185  948.2192
 186  1016.505
 187  1028.822
 188  965.871
 189  842.16
 190  932.9374
 191  1061.848
 192  1048.086
 193  1076.048
 194  1043.079
 195  1000.672
 196  1007.016
 197  999.0646
 198  1098.98
 199  1094.042
 200  1051.146
 201  1037.58
 202  1025.758
 203  1028.983
 204  1003.584
 205  984.4667
 206  1032.381
 207  1005.035
 208  986.9673
 209  971.0412
 210  982.3315
 211  933.6757
 212  958.6143
 213  885.2695
 214  1016.818
 215  965.0684
 216  1143.295
 217  1080.92
 218  1035.173
 219  1027.028
 220  1177.839
 221  1102.294
 222  1069.568
 223  1028.105
 224  1088.079
 225  1066.317
 226  1142.277
 227  1049.524
 228  1047.252
 229  1087.873
 230  1091.137
 231  1067.146
 232  1036.458
 233  1044.213
 234  1071.36
 235  1059.1
 236  1069.173
 237  1008.338
 238  998.0062
 239  1086.879
 240  1046.987
 241  1087.749
 242  1009.286
 243  1046.042
 244  1130.89
 245  1084.352
 246  994.4366
 247  1073.13
 248  1123.228
 249  1103.181
 250  1116.794
 251  1111.316
 252  980.9645
 253  1007.071
 254  986.3131
 255  1046.012
 256  1072.062
 257  1013.107
 258  984.5754
 259  1027.636
 260  1045.126
 261  999.9258
 262  900.6124
 263  994.2947
 264  997.5086
 265  991.1764
 266  981.3299
 267  1074.292
 268  975.4823
 269  981.1287
 270  953.5054
 271  986.35
 272  1060.843
 273  1087.323
 274  1025.823
 275  1026.677
 276  1012.735
 277  1113.605
 278  1113.542
 279  971.4238
 280  1029.084
 281  983.2961
 282  982.8168
 283  997.2624
 284  1003.443
 285  910.0573
 286  972.715
 287  1030.945
 288  976.1499
 289  949.8322
 290  884.6912
 291  934.8322
 292  1024.31
 293  1047.943
 294  968.67
 295  943.4254
 296  949.967
 297  930.6721
 298  1000.073
 299  999.3025
 300  991.9462
 301  980.2292
 302  1084.905
 303  994.8401
 304  1003.859
 305  1080.263
 306  1093.161
 307  1042.516
 308  1028.216
 309  1066.029
 310  951.7211
 311  904.3716
 312  963.3663
 313  955.6722
 314  966.7975
 315  1098.641
 316  1110.626
 317  1079.034
 318  935.1528
 319  990.4463
 320  1092.711
 321  1139.385
 322  1061.712
 323  1095.182
 324  1034.247
 325  1091.253
 326  1085.279
 327  1018.795
 328  966.043
 329  1038.884
 330  1109.875
 331  1102.734
 332  1064.892
 333  1129.831
 334  1150.715
 335  1122.648
 336  1069.797
 337  982.9884
 338  987.0168
 339  1030.282
 340  1072.422
 341  1149.753
 342  1181.688
 343  1056.309
 344  1052.816
 345  1089.204
 346  943.8774
 347  928.8368
 348  949.1052
 349  954.7177
 350  1021.615
 351  1022.34
 352  1017.178
 353  1035.603
 354  1042.342
 355  1082.974
 356  1107.37
 357  1036.627
 358  1032.982
 359  1104.665
 360  1092.402
 361  1092.779
 362  1111.581
 363  1182.042
 364  1114.577
 365  1126.677
 366  1121.414
 367  1053.697
 368  1063.389
 369  1158.877
 370  1135.22
 371  1043.93
 372  1047.172
 373  1069.213
 374  1057.548
 375  1095.98
 376  1069.927
 377  1120.639
 378  1081.102
 379  994.5784
 380  1043.01
 381  1018.161
 382  1032.57
 383  1012.521
 384  1058.201
 385  1044.262
 386  1054.598
 387  1067.509
 388  1080.926
 389  1058.677
 390  1108.208
 391  1150.27
 392  1145.45
 393  987.62
 394  988.0657
 395  937.6897
 396  981.206
 397  1095.574
 398  1060.059
 399  1014.384
 400  948.3181
 401  1067.541
 402  1054.982
 403  975.7739
 404  912.0939
 405  926.2526
 406  986.7809
 407  1046.002
 408  1023.221
 409  997.277
 410  1034.51
 411  1007.036
 412  959.427
 413  1044.835
 414  1029.59
 415  1033.575
 416  995.3105
 417  1066.317
 418  993.689
 419  1014.102
 420  1046.409
 421  1074.393
 422  1025.565
 423  1002.079
 424  1021.809
 425  1052.196
 426  1012.299
 427  1089.938
 428  1119.214
 429  1099.627
 430  1020.745
 431  1003.492
 432  1063.703
 433  1108.664
 434  1023.932
 435  1107.295
 436  1093.436
 437  1068.718
 438  1016.088
 439  1015.919
 440  1081.339
 441  1095.871
 442  996.5519
 443  1060.044
 444  1101.064
 445  1068.324
 446  1092.25
 447  1098.172
 448  1117.494
 449  1074.974
 450  1053.011
 451  1033.481
 452  1037.959
 453  955.098
 454  1041.101
 455  1022.853
 456  1059.967
 457  966.6663
 458  1062.934
 459  1095.293
 460  944.87
 461  895.0418
 462  978.3087
 463  1004.01
 464  1029.946
 465  993.0966
 466  1024.796
 467  973.4948
 468  966.5266
 469  1051.609
 470  1127.117
 471  1000.855
 472  997.7037
 473  1074.993
 474  1147.341
 475  1050.995
 476  1109.23
 477  1050.914
 478  1039.731
 479  929.8059
 480  957.0859
 481  959.3238
 482  847.3842
 483  957.529
 484  996.0746
 485  968.7079
 486  890.7115
 487  1035.174
 488  1133.562
 489  1051.087
 490  1048.058
 491  1050.581
 492  1077.417
 493  1119.141
 494  1071.018
 495  1039.077
 496  932.6447
 497  1052.43
 498  1033.837
 499  1066.752
 500  1037.312
 501  1108.55
 502  1095.714
 503  1051.823
 504  1059.946
 505  975.601
 506  1053.377
 507  1128.976
 508  1143.673
 509  1164.46
 510  1241.856
 511  1361.07
