# Input file       =  1195000152.117789_cleaned.dat
# Candidate        =  PSR_0332+5434
# Telescope        =  AR
# Epoch_topo       =  58075.020070807746
# Epoch_bary       =  N/A
# T_sample         =  0.002
# Data Folded      =  7340032
# Data Avg         =  0.0904007039255173
# Data StdDev      =  1.00033941487739 
# Profile Bins     =  512
# Profile Avg      =  1295.74011610293 
# Profile StdDev   =  119.773675550628 
# Reduced chi-sqr  =  0.737
# Prob(Noise)      <  1   (~0.0 sigma)
# P_topo (ms)      =  714.512612502895  +/- 4.04e-05
# P'_topo (s/s)    =  -0                +/- 2.13e-11
# P''_topo (s/s^2) =  0                 +/- 9.41e-15
# P_bary (ms)      =  N/A
# P'_bary (s/s)    =  N/A
# P''_bary (s/s^2) =  N/A
# P_orb (s)        =  N/A
# asin(i)/c (s)    =  N/A
# eccentricity     =  N/A
# w (rad)          =  N/A
# T_peri           =  N/A
######################################################
   0  1506.38
   1  1559.755
   2  1421.284
   3  1388.396
   4  1324.93
   5  1284.182
   6  1335.965
   7  1308.609
   8  1256.423
   9  1232.902
  10  1248.922
  11  1296.322
  12  1297.017
  13  1243.634
  14  1333.179
  15  1330.491
  16  1424.398
  17  1364.736
  18  1353.921
  19  1367.068
  20  1329.311
  21  1255.843
  22  1183.917
  23  1194.983
  24  1345.781
  25  1322.482
  26  1255.483
  27  1270.427
  28  1395.786
  29  1329.607
  30  1322.528
  31  1301.306
  32  1238.032
  33  1281.111
  34  1319.926
  35  1396.443
  36  1299.259
  37  1226.379
  38  1408.457
  39  1289.274
  40  1271.608
  41  1284.743
  42  1348.925
  43  1364.817
  44  1286.843
  45  1341.396
  46  1330.382
  47  1228.592
  48  1267.254
  49  1344.301
  50  1309.094
  51  1269.174
  52  1237.393
  53  1368.78
  54  1380.565
  55  1364.098
  56  1402.366
  57  1344.029
  58  1270.378
  59  1353.408
  60  1308.486
  61  1346.407
  62  1325.989
  63  1415.203
  64  1348.448
  65  1280.24
  66  1307.525
  67  1408.043
  68  1289.496
  69  1216.017
  70  1286.713
  71  1231.436
  72  1259.603
  73  1215.434
  74  1279.396
  75  1288.818
  76  1279.546
  77  1269.458
  78  1340.178
  79  1271.561
  80  1314.121
  81  1362.102
  82  1328.378
  83  1374.122
  84  1331.445
  85  1401.793
  86  1458.926
  87  1403.094
  88  1412.886
  89  1374.488
  90  1331.692
  91  1305.9
  92  1333.385
  93  1327.18
  94  1208.506
  95  1238.562
  96  1357.669
  97  1389.525
  98  1410.567
  99  1457.714
 100  1383.296
 101  1322.99
 102  1338.081
 103  1414.069
 104  1427.203
 105  1314.903
 106  1381.242
 107  1395.652
 108  1308.015
 109  1289.942
 110  1342.411
 111  1366.693
 112  1325.489
 113  1416.622
 114  1398.671
 115  1292.015
 116  1311.691
 117  1405.761
 118  1384.927
 119  1293.995
 120  1435.068
 121  1505.935
 122  1428.786
 123  1336.631
 124  1276.508
 125  1321.132
 126  1302.44
 127  1270.122
 128  1331.546
 129  1315.164
 130  1295.271
 131  1235.514
 132  1325.174
 133  1274.502
 134  1281.454
 135  1390.844
 136  1429.642
 137  1338.356
 138  1456.233
 139  1437.994
 140  1352.82
 141  1424.958
 142  1476.565
 143  1484.294
 144  1400.532
 145  1306.534
 146  1284.426
 147  1287.384
 148  1286.534
 149  1421.894
 150  1361.308
 151  1310.515
 152  1325.276
 153  1330.243
 154  1280.352
 155  1202.193
 156  1269.213
 157  1236.995
 158  1169.901
 159  1227.525
 160  1268.144
 161  1222.015
 162  1148.45
 163  1316.967
 164  1429.222
 165  1294.549
 166  1278.021
 167  1295.02
 168  1260.243
 169  1352.337
 170  1412.975
 171  1443.258
 172  1395.868
 173  1236.451
 174  1232.092
 175  1294.812
 176  1265.185
 177  1315.268
 178  1289.394
 179  1298.182
 180  1315.858
 181  1435.651
 182  1373.653
 183  1354.443
 184  1348.14
 185  1292.224
 186  1279.948
 187  1217.365
 188  1303.515
 189  1360.035
 190  1353.544
 191  1288.187
 192  1282.251
 193  1343.958
 194  1372.404
 195  1333.875
 196  1365.122
 197  1283.294
 198  1280.039
 199  1325.942
 200  1362.368
 201  1334.051
 202  1279.238
 203  1290.123
 204  1325.289
 205  1313.332
 206  1243.456
 207  1310.055
 208  1205.157
 209  1144.172
 210  1277.078
 211  1288.917
 212  1344.453
 213  1360.56
 214  1430.248
 215  1351.902
 216  1269.032
 217  1233.05
 218  1322.75
 219  1328.848
 220  1351.891
 221  1329.218
 222  1353.133
 223  1285.134
 224  1245.131
 225  1252.524
 226  1266.388
 227  1292.964
 228  1313.259
 229  1358.657
 230  1374.94
 231  1263.988
 232  1249.135
 233  1225.733
 234  1271.649
 235  1314.973
 236  1285.364
 237  1248.076
 238  1258.029
 239  1251.524
 240  1161.961
 241  1127.53
 242  1246.519
 243  1328.212
 244  1255.13
 245  1172.998
 246  1205.39
 247  1128.656
 248  1138.391
 249  1280.003
 250  1272.972
 251  1198.445
 252  1178.399
 253  1284.668
 254  1361.324
 255  1187.03
 256  1107.542
 257  1134.028
 258  1117.754
 259  1104.983
 260  1128.317
 261  1228.886
 262  1262.884
 263  1283.65
 264  1393.331
 265  1304.473
 266  1262.9
 267  1322.759
 268  1364.359
 269  1279.324
 270  1295.697
 271  1356.031
 272  1338.227
 273  1314.26
 274  1384.985
 275  1379.769
 276  1292.514
 277  1277.35
 278  1396.057
 279  1288.351
 280  1186.163
 281  1248.332
 282  1287.132
 283  1225.476
 284  1261.939
 285  1366.109
 286  1284.947
 287  1217.534
 288  1290.434
 289  1210.277
 290  1190.812
 291  1229.266
 292  1255.202
 293  1200.271
 294  1200.575
 295  1367.634
 296  1358.253
 297  1173.848
 298  1208.909
 299  1251.006
 300  1194.861
 301  1190.074
 302  1148.022
 303  1238.198
 304  1355.054
 305  1382.821
 306  1262.028
 307  1197.726
 308  1139.09
 309  1141.189
 310  1288.283
 311  1342.428
 312  1210.699
 313  1213.568
 314  1235.488
 315  1277.212
 316  1189.247
 317  1230.461
 318  1261.43
 319  1125.328
 320  1099.189
 321  1272.109
 322  1351.891
 323  1280.111
 324  1208.056
 325  1285.156
 326  1235.653
 327  1208.478
 328  1293.359
 329  1354.867
 330  1254.494
 331  1228.119
 332  1249.031
 333  1181.694
 334  1135.385
 335  1213.03
 336  1284.915
 337  1340.711
 338  1250.646
 339  1256.411
 340  1294.834
 341  1293.699
 342  1351.397
 343  1291.109
 344  1292.719
 345  1282.439
 346  1309.238
 347  1313.026
 348  1169.534
 349  1218.131
 350  1236.661
 351  1165.807
 352  1201.485
 353  1324.055
 354  1372.403
 355  1369.6
 356  1406.251
 357  1301.846
 358  1271.515
 359  1306.157
 360  1380.211
 361  1305.121
 362  1243.805
 363  1272.445
 364  1296.688
 365  1284.692
 366  1364.357
 367  1351.384
 368  1404.55
 369  1322.132
 370  1289.574
 371  1288.194
 372  1322.647
 373  1323.255
 374  1351.834
 375  1362.442
 376  1347.761
 377  1295.849
 378  1288.056
 379  1261.245
 380  1288.674
 381  1222.506
 382  1307.613
 383  1355.356
 384  1336.612
 385  1256.553
 386  1234.458
 387  1230.038
 388  1330.211
 389  1309.446
 390  1236.347
 391  1185.965
 392  1219.359
 393  1232.747
 394  1240.391
 395  1244.216
 396  1287.95
 397  1261.582
 398  1162.499
 399  1233.122
 400  1247.422
 401  1210.281
 402  1187.729
 403  1307.591
 404  1295.428
 405  1249.793
 406  1130.284
 407  1287.416
 408  1328.479
 409  1370.882
 410  1275.044
 411  1290.315
 412  1225.657
 413  1232.363
 414  1257.108
 415  1192.418
 416  1297.405
 417  1291.544
 418  1402.294
 419  1320.637
 420  1235.374
 421  1345.526
 422  1293.448
 423  1183.2
 424  1285.951
 425  1395.184
 426  1382.406
 427  1271.715
 428  1231.223
 429  1386.002
 430  1273.667
 431  1309.684
 432  1279.498
 433  1252.193
 434  1230.833
 435  1304.553
 436  1336.551
 437  1378.402
 438  1373.816
 439  1373.164
 440  1383.154
 441  1359.538
 442  1383.065
 443  1327.217
 444  1268.785
 445  1264.334
 446  1319.894
 447  1318.19
 448  1323.593
 449  1226.929
 450  1204.095
 451  1179.854
 452  1168.49
 453  1305.333
 454  1311.184
 455  1231.3
 456  1273.986
 457  1316.878
 458  1233.974
 459  1213.289
 460  1327.25
 461  1374.202
 462  1191.241
 463  1070.507
 464  1229.091
 465  1258.633
 466  1119.485
 467  1157.526
 468  1260.768
 469  1221.494
 470  1186.208
 471  1210.154
 472  1342.625
 473  1351.411
 474  1280.687
 475  1349.608
 476  1326.795
 477  1276.51
 478  1187.667
 479  1202.943
 480  1280.449
 481  1393.281
 482  1343.486
 483  1318.374
 484  1267.371
 485  1252.172
 486  1264.199
 487  1288.055
 488  1244.54
 489  1392.476
 490  1316.19
 491  1252.328
 492  1164.597
 493  1252.325
 494  1235.449
 495  1176.417
 496  1231.051
 497  1470.614
 498  1387.731
 499  1310.402
 500  1339.501
 501  1312.562
 502  1285.279
 503  1266.081
 504  1345.585
 505  1433.625
 506  1403.857
 507  1335.905
 508  1298.807
 509  1303.446
 510  1423.114
 511  1490.632
