# Input file       =  1197555195.115929_cleaned.dat
# Candidate        =  PSR_0332+5434
# Telescope        =  AR
# Epoch_topo       =  58104.592327730657
# Epoch_bary       =  N/A
# T_sample         =  0.002
# Data Folded      =  7405568
# Data Avg         =  0.0577336637278543
# Data StdDev      =  1.00001703064204 
# Profile Bins     =  512
# Profile Avg      =  835.063166308322 
# Profile StdDev   =  120.268419240498 
# Reduced chi-sqr  =  0.958
# Prob(Noise)      <  0.744   (~0.0 sigma)
# P_topo (ms)      =  714.542487794208  +/- 0.000177
# P'_topo (s/s)    =  -0                +/- 9.25e-11
# P''_topo (s/s^2) =  0                 +/- 4.05e-14
# P_bary (ms)      =  N/A
# P'_bary (s/s)    =  N/A
# P''_bary (s/s^2) =  N/A
# P_orb (s)        =  N/A
# asin(i)/c (s)    =  N/A
# eccentricity     =  N/A
# w (rad)          =  N/A
# T_peri           =  N/A
######################################################
   0  1132.909
   1  1157.282
   2  1068.638
   3  923.0646
   4  837.9365
   5  816.9082
   6  832.1703
   7  767.3481
   8  813.5227
   9  842.7787
  10  755.0324
  11  836.8815
  12  821.3506
  13  797.2853
  14  865.6382
  15  840.2169
  16  814.0817
  17  743.4883
  18  764.8081
  19  812.1155
  20  723.7787
  21  681.0822
  22  758.1323
  23  760.7568
  24  875.7673
  25  941.3843
  26  811.5065
  27  744.0676
  28  787.2791
  29  833.9526
  30  922.036
  31  939.8122
  32  952.9553
  33  843.2612
  34  816.6141
  35  794.8266
  36  944.9382
  37  957.507
  38  922.6378
  39  864.1125
  40  792.5647
  41  790.6606
  42  954.406
  43  972.3771
  44  944.5089
  45  870.8199
  46  944.1592
  47  1042.571
  48  1048.248
  49  968.4314
  50  926.1866
  51  882.4651
  52  880.3533
  53  865.6373
  54  851.9217
  55  892.2213
  56  912.2352
  57  1038.376
  58  943.4855
  59  785.3296
  60  874.5249
  61  871.5347
  62  806.1226
  63  824.6501
  64  837.6344
  65  896.3411
  66  840.0891
  67  754.8623
  68  701.5683
  69  757.637
  70  734.0242
  71  880.2788
  72  889.3339
  73  843.5009
  74  770.1196
  75  787.4869
  76  826.9504
  77  842.4653
  78  938.1365
  79  975.5245
  80  1016.302
  81  918.2755
  82  792.8639
  83  891.0884
  84  747.4208
  85  771.9597
  86  929.5029
  87  885.4781
  88  977.2958
  89  887.3249
  90  802.8231
  91  823.2997
  92  777.0194
  93  729.8872
  94  819.7374
  95  881.4581
  96  903.1168
  97  810.7854
  98  689.2058
  99  750.7401
 100  767.1561
 101  747.3465
 102  741.1601
 103  745.0101
 104  812.906
 105  704.2546
 106  723.2961
 107  806.3026
 108  935.1029
 109  969.1648
 110  723.8361
 111  693.1888
 112  800.0985
 113  841.9812
 114  767.4682
 115  900.2039
 116  941.0121
 117  845.0649
 118  859.2603
 119  957.2067
 120  821.3618
 121  799.1533
 122  723.4432
 123  708.9742
 124  829.6067
 125  833.8394
 126  810.5193
 127  939.2944
 128  1021.374
 129  893.2988
 130  805.5048
 131  813.9249
 132  769.1744
 133  849.4743
 134  812.7661
 135  801.5522
 136  746.012
 137  959.212
 138  916.6991
 139  889.2009
 140  817.7246
 141  855.96
 142  865.1207
 143  886.7034
 144  870.1614
 145  841.4657
 146  867.5051
 147  861.2947
 148  884.0455
 149  843.5413
 150  860.9482
 151  989.0444
 152  904.3234
 153  869.8133
 154  850.6278
 155  902.2477
 156  939.5264
 157  895.8266
 158  890.2365
 159  817.5508
 160  867.4276
 161  990.4046
 162  1077.85
 163  916.0828
 164  862.7156
 165  882.6624
 166  848.5431
 167  893.4218
 168  922.3911
 169  841.9371
 170  740.1489
 171  721.0139
 172  751.2261
 173  842.2247
 174  815.0883
 175  778.2779
 176  875.058
 177  961.428
 178  963.8441
 179  893.3997
 180  821.4604
 181  751.5265
 182  770.9628
 183  796.7755
 184  837.9396
 185  817.3231
 186  941.6069
 187  970.3589
 188  908.4404
 189  808.1265
 190  887.3918
 191  962.8688
 192  803.1863
 193  828.6025
 194  879.5345
 195  916.1691
 196  911.2256
 197  896.1216
 198  908.8051
 199  759.144
 200  865.8615
 201  833.0654
 202  855.6891
 203  835.634
 204  917.8524
 205  952.1115
 206  898.6148
 207  807.776
 208  872.3304
 209  939.8956
 210  839.7726
 211  745.2935
 212  807.3647
 213  771.2163
 214  793.0051
 215  826.3736
 216  865.807
 217  701.012
 218  739.0534
 219  836.572
 220  971.5379
 221  904.656
 222  828.0694
 223  847.3768
 224  918.769
 225  807.0576
 226  828.8508
 227  892.6387
 228  911.814
 229  812.5856
 230  766.6348
 231  919.6511
 232  953.3526
 233  782.4081
 234  864.4678
 235  922.439
 236  916.004
 237  883.7648
 238  856.2615
 239  892.1664
 240  921.2394
 241  902.0164
 242  936.2513
 243  930.3969
 244  817.1414
 245  938.8681
 246  922.4012
 247  871.324
 248  764.4457
 249  724.954
 250  753.95
 251  864.5377
 252  925.4198
 253  914.3052
 254  732.019
 255  666.5005
 256  656.3331
 257  738.0521
 258  837.4985
 259  842.7318
 260  787.715
 261  867.3041
 262  927.4894
 263  757.1216
 264  792.2054
 265  854.8311
 266  867.4183
 267  834.6487
 268  843.5156
 269  814.8466
 270  798.6656
 271  818.6218
 272  789.3074
 273  726.6154
 274  695.1408
 275  768.3982
 276  819.9299
 277  879.2266
 278  858.3425
 279  917.4538
 280  878.3311
 281  701.6499
 282  777.7075
 283  764.7495
 284  925.9678
 285  884.1754
 286  843.6588
 287  888.7558
 288  848.3694
 289  724.3162
 290  854.5494
 291  849.0707
 292  778.5513
 293  830.9866
 294  966.3898
 295  841.1853
 296  680.6567
 297  712.6967
 298  697.2247
 299  741.7133
 300  832.9777
 301  887.351
 302  768.218
 303  735.8695
 304  778.8576
 305  807.9219
 306  843.9633
 307  807.235
 308  801.4294
 309  797.5265
 310  766.4861
 311  720.6589
 312  810.023
 313  840.8159
 314  814.183
 315  859.4922
 316  747.2413
 317  779.1147
 318  833.5234
 319  891.2513
 320  849.4329
 321  789.9977
 322  715.2678
 323  826.1189
 324  716.1674
 325  697.5363
 326  635.2155
 327  612.8323
 328  754.6127
 329  769.3643
 330  787.3748
 331  749.1644
 332  831.1669
 333  869.8641
 334  740.4095
 335  894.9908
 336  836.361
 337  791.6652
 338  789.3016
 339  835.7524
 340  818.6349
 341  843.847
 342  958.9047
 343  909.054
 344  859.3863
 345  821.338
 346  788.8979
 347  831.0927
 348  841.112
 349  817.6596
 350  807.5532
 351  750.7003
 352  832.506
 353  789.6227
 354  779.051
 355  738.8916
 356  767.2942
 357  753.2872
 358  895.8395
 359  926.7734
 360  839.3536
 361  889.7825
 362  906.9191
 363  703.9239
 364  699.7788
 365  718.7717
 366  746.3486
 367  740.7753
 368  879.5349
 369  728.5888
 370  634.8066
 371  680.5269
 372  791.9708
 373  756.3641
 374  909.6152
 375  981.7349
 376  952.8827
 377  892.6057
 378  835.4084
 379  854.6677
 380  920.8883
 381  804.0301
 382  792.9952
 383  703.0113
 384  685.2228
 385  750.4292
 386  914.6074
 387  925.3453
 388  772.0554
 389  775.6711
 390  782.4739
 391  760.1649
 392  836.4958
 393  756.9662
 394  773.9874
 395  825.3016
 396  738.3181
 397  805.5852
 398  811.7505
 399  840
 400  880.3023
 401  934.2522
 402  1029.287
 403  880.7067
 404  746.1741
 405  713.5918
 406  771.5457
 407  769.443
 408  833.5001
 409  875.5952
 410  819.731
 411  820.9427
 412  684.1548
 413  872.1535
 414  876.4678
 415  787.3925
 416  764.5247
 417  830.3561
 418  753.5472
 419  733.4299
 420  757.5309
 421  693.2933
 422  815.0711
 423  819.2267
 424  892.1351
 425  926.4064
 426  882.2641
 427  848.2754
 428  728.1218
 429  869.8927
 430  838.3186
 431  648.2546
 432  538.9385
 433  740.0526
 434  799.675
 435  670.6331
 436  697.3506
 437  728.5448
 438  720.958
 439  830.0444
 440  785.9473
 441  746.2289
 442  809.7135
 443  842.3385
 444  861.3696
 445  853.222
 446  738.6914
 447  735.2132
 448  865.2557
 449  778.0389
 450  794.6124
 451  888.0149
 452  931.9699
 453  857.4476
 454  849.791
 455  913.6189
 456  881.5616
 457  819.6962
 458  954.9514
 459  949.4667
 460  1029.643
 461  939.3746
 462  921.4318
 463  958.5473
 464  800.5236
 465  706.5546
 466  842.2189
 467  898.5712
 468  763.2782
 469  738.7036
 470  785.0444
 471  751.4689
 472  728.5226
 473  886.4899
 474  834.2344
 475  732.9965
 476  880.9299
 477  999.932
 478  970.955
 479  798.3227
 480  788.0948
 481  827.9603
 482  795.7028
 483  803.1
 484  788.0181
 485  872.5972
 486  753.6593
 487  734.4172
 488  787.3023
 489  810.1735
 490  685.3141
 491  762.6863
 492  883.1362
 493  899.4606
 494  863.52
 495  775.3746
 496  697.8005
 497  760.3307
 498  728.9255
 499  812.9083
 500  785.0309
 501  873.0198
 502  903.9099
 503  853.9522
 504  881.5037
 505  833.8704
 506  887.3285
 507  1012.557
 508  967.5744
 509  991.6503
 510  1185.595
 511  1129.367
