# Input file       =  1197570344.120679_cleaned.dat
# Candidate        =  PSR_0332+5434
# Telescope        =  AR
# Epoch_topo       =  58104.767663433784
# Epoch_bary       =  N/A
# T_sample         =  0.002
# Data Folded      =  7340032
# Data Avg         =  0.0347605808504351
# Data StdDev      =  1.00005044693723 
# Profile Bins     =  512
# Profile Avg      =  498.314726706926 
# Profile StdDev   =  119.739076541737 
# Reduced chi-sqr  =  0.894
# Prob(Noise)      <  0.96   (~0.0 sigma)
# P_topo (ms)      =  714.542682028594  +/- 0.000308
# P'_topo (s/s)    =  -0                +/- 1.63e-10
# P''_topo (s/s^2) =  0                 +/- 7.18e-14
# P_bary (ms)      =  N/A
# P'_bary (s/s)    =  N/A
# P''_bary (s/s^2) =  N/A
# P_orb (s)        =  N/A
# asin(i)/c (s)    =  N/A
# eccentricity     =  N/A
# w (rad)          =  N/A
# T_peri           =  N/A
######################################################
   0  881.18
   1  893.2938
   2  812.807
   3  736.1707
   4  639.3582
   5  618.9505
   6  617.8492
   7  608.8018
   8  552.768
   9  414.6791
  10  459.6176
  11  450.3918
  12  442.4237
  13  522.931
  14  665.4341
  15  510.0318
  16  553.3231
  17  525.9485
  18  436.7498
  19  470.2378
  20  570.2138
  21  555.3118
  22  468.897
  23  518.1885
  24  636.6923
  25  666.5583
  26  547.0309
  27  517.5766
  28  566.9366
  29  499.0631
  30  455.7633
  31  515.794
  32  588.602
  33  502.0315
  34  491.4407
  35  531.2907
  36  536.1741
  37  440.155
  38  489.508
  39  458.8159
  40  421.3177
  41  397.1731
  42  385.4924
  43  382.9886
  44  401.7625
  45  523.2535
  46  497.8208
  47  468.1177
  48  432.586
  49  477.7218
  50  544.8514
  51  474.5275
  52  402.4268
  53  493.344
  54  525.6346
  55  550.7001
  56  592.6187
  57  565.4648
  58  477.6848
  59  528.6757
  60  500.2522
  61  406.8738
  62  478.9361
  63  488.8825
  64  514.8277
  65  448.419
  66  416.2214
  67  357.3853
  68  482.8528
  69  500.5316
  70  434.0074
  71  439.1188
  72  365.5323
  73  416.5028
  74  490.7354
  75  566.0272
  76  562.0906
  77  436.2784
  78  348.5206
  79  427.1243
  80  531.8203
  81  530.2011
  82  469.0195
  83  496.0541
  84  535.0881
  85  709.4183
  86  625.1136
  87  633.1287
  88  621.0559
  89  501.9223
  90  469.3719
  91  338.3458
  92  434.1215
  93  594.4601
  94  568.6204
  95  469.6186
  96  523.4951
  97  488.3589
  98  508.1374
  99  507.6159
 100  399.6242
 101  464.4453
 102  516.4732
 103  522.6415
 104  449.6947
 105  448.6968
 106  540.218
 107  511.2092
 108  528.7831
 109  657.0306
 110  405.5318
 111  456.7755
 112  498.7561
 113  424.4772
 114  445.2358
 115  426.2076
 116  399.2791
 117  364.1954
 118  385.3356
 119  505.8425
 120  555.8067
 121  527.6538
 122  611.8781
 123  540.7721
 124  479.6026
 125  442.4234
 126  425.6529
 127  419.6604
 128  424.656
 129  473.1198
 130  395.4349
 131  470.2463
 132  376.1975
 133  488.8726
 134  483.8716
 135  458.5952
 136  462.2057
 137  437.7678
 138  452.4662
 139  558.1008
 140  627.8196
 141  511.3391
 142  444.6639
 143  506.7222
 144  468.1169
 145  537.3884
 146  597.4363
 147  469.9208
 148  417.4114
 149  446.1147
 150  486.4769
 151  501.3318
 152  569.0323
 153  559.0837
 154  512.8868
 155  423.2004
 156  448.5102
 157  552.0327
 158  529.631
 159  510.0264
 160  533.3884
 161  510.8956
 162  448.2429
 163  414.549
 164  590.9119
 165  641.9968
 166  592.8272
 167  434.935
 168  492.4592
 169  518.6084
 170  461.4832
 171  473.8992
 172  528.3334
 173  482.1903
 174  524.6979
 175  478.3712
 176  400.2009
 177  365.1103
 178  412.3288
 179  485.0331
 180  454.0212
 181  468.4632
 182  471.0372
 183  550.5393
 184  569.1777
 185  687.9264
 186  552.9038
 187  576.2444
 188  544.1158
 189  486.2917
 190  534.5504
 191  532.9374
 192  440.8281
 193  551.6315
 194  528.6958
 195  527.4326
 196  508.6815
 197  501.9865
 198  596.676
 199  729.2636
 200  735.5325
 201  519.616
 202  420.8805
 203  406.7022
 204  435.1015
 205  338.2029
 206  510.3572
 207  580.2319
 208  463.4361
 209  551.3934
 210  546.979
 211  457.452
 212  390.6035
 213  485.5588
 214  479.0815
 215  477.3919
 216  417.7885
 217  458.0813
 218  493.0472
 219  441.648
 220  527.8591
 221  566.2392
 222  500.8677
 223  453.9069
 224  413.0786
 225  517.5542
 226  532.4692
 227  526.7206
 228  533.4385
 229  501.9259
 230  450.3478
 231  498.8914
 232  607.9528
 233  639.4585
 234  482.3278
 235  414.0997
 236  502.6382
 237  484.4149
 238  316.8019
 239  425.0416
 240  517.5644
 241  494.0616
 242  477.6466
 243  385.5543
 244  453.9561
 245  517.1379
 246  543.8251
 247  520.9938
 248  517.2351
 249  591.8552
 250  580.2376
 251  536.2161
 252  458.0871
 253  550.9078
 254  627.9619
 255  563.6505
 256  544.9783
 257  560.3065
 258  509.1898
 259  435.5459
 260  371.6277
 261  405.2062
 262  478.0396
 263  488.1906
 264  380.1244
 265  405.7747
 266  428.5722
 267  464.9046
 268  311.7931
 269  372.3002
 270  447.8733
 271  549.7786
 272  644.8648
 273  544.9201
 274  612.8787
 275  562.4319
 276  493.7851
 277  469.0648
 278  410.4383
 279  443.4486
 280  410.9602
 281  392.213
 282  432.3
 283  440.4676
 284  330.8146
 285  487.6401
 286  569.3463
 287  450.8831
 288  408.7943
 289  547.8743
 290  619.061
 291  552.024
 292  501.8464
 293  494.8139
 294  641.3925
 295  587.166
 296  442.8534
 297  459.2855
 298  481.4359
 299  474.8563
 300  503.493
 301  532.0584
 302  484.5414
 303  552.5088
 304  532.3834
 305  702.7817
 306  519.9747
 307  581.9534
 308  531.3562
 309  531.683
 310  515.0041
 311  483.6188
 312  525.0107
 313  490.7614
 314  461.8999
 315  450.6046
 316  376.3625
 317  525.6833
 318  524.1529
 319  418.9995
 320  492.1139
 321  417.7542
 322  469.317
 323  372.3262
 324  524.0864
 325  556.5667
 326  492.8737
 327  608.1622
 328  562.8459
 329  565.0686
 330  510.512
 331  497.1523
 332  433.1068
 333  487.9687
 334  484.7885
 335  480.9656
 336  511.0711
 337  584.1736
 338  588.7502
 339  623.0139
 340  601.1334
 341  535.761
 342  560.0432
 343  442.7815
 344  429.7472
 345  445.4266
 346  417.0772
 347  502.4132
 348  334.672
 349  370.7813
 350  481.3696
 351  474.6905
 352  399.0564
 353  443.4702
 354  437.0375
 355  441.5129
 356  409.6124
 357  450.1667
 358  450.8309
 359  472.3732
 360  427.553
 361  477.8023
 362  545.8546
 363  457.0273
 364  332.3747
 365  409.639
 366  593.9286
 367  611.1441
 368  594.4969
 369  588.2397
 370  529.3413
 371  504.92
 372  504.3758
 373  449.3413
 374  461.3138
 375  420.0885
 376  405.9423
 377  470.7251
 378  429.9672
 379  519.7698
 380  473.4072
 381  470.0079
 382  559.4438
 383  658.356
 384  571.258
 385  520.6455
 386  537.1483
 387  472.9783
 388  445.6289
 389  609.5681
 390  657.9323
 391  572.3079
 392  517.216
 393  482.2243
 394  525.0603
 395  522.0217
 396  640.2445
 397  616.8655
 398  452.4691
 399  470.4826
 400  474.3813
 401  469.7018
 402  383.9675
 403  390.0721
 404  348.9455
 405  421.5631
 406  452.5057
 407  472.0676
 408  381.143
 409  493.2083
 410  534.4754
 411  539.2615
 412  470.5329
 413  401.5477
 414  533.004
 415  517.5067
 416  504.0867
 417  526.6882
 418  488.085
 419  552.3533
 420  499.0632
 421  364.2692
 422  282.7709
 423  421.807
 424  550.5125
 425  573.3685
 426  495.1378
 427  380.6009
 428  442.036
 429  409.6348
 430  337.1779
 431  420.4766
 432  421.2899
 433  418.7281
 434  472.6021
 435  498.611
 436  530.3291
 437  501.3486
 438  424.3772
 439  488.9389
 440  520.7716
 441  509.5424
 442  638.9713
 443  669.6425
 444  659.5604
 445  599.5755
 446  502.1429
 447  578.9736
 448  557.6902
 449  485.8647
 450  483.6413
 451  531.392
 452  457.1219
 453  428.8868
 454  405.179
 455  454.7798
 456  486.0535
 457  403.2178
 458  460.6879
 459  391.3943
 460  519.6091
 461  412.1581
 462  492.7209
 463  559.7875
 464  609.3206
 465  506.8918
 466  474.5141
 467  533.5148
 468  440.8974
 469  404.6089
 470  451.3148
 471  540.6245
 472  527.5388
 473  433.0759
 474  515.223
 475  593.87
 476  613.9414
 477  531.0566
 478  429.1519
 479  434.0082
 480  351.6582
 481  396.9044
 482  440.4226
 483  482.5369
 484  499.6895
 485  397.5792
 486  494.537
 487  544.4821
 488  501.6756
 489  593.4443
 490  593.0914
 491  630.7445
 492  600.3319
 493  474.1588
 494  547.5594
 495  464.1216
 496  472.6383
 497  513.3035
 498  543.0092
 499  455.5171
 500  458.4138
 501  416.0174
 502  340.8128
 503  468.8083
 504  440.2434
 505  431.6807
 506  542.7495
 507  566.8668
 508  466.4652
 509  635.1968
 510  784.5478
 511  922.5493
