# Input file       =  1197407269.136531_cleaned.dat
# Candidate        =  PSR_0332+5434
# Telescope        =  AR
# Epoch_topo       =  58102.880221487627
# Epoch_bary       =  N/A
# T_sample         =  0.002
# Data Folded      =  7340032
# Data Avg         =  0.0582776629906075
# Data StdDev      =  0.999972112360673
# Profile Bins     =  512
# Profile Avg      =  835.531813779263 
# Profile StdDev   =  119.729697305032 
# Reduced chi-sqr  =  0.482
# Prob(Noise)      <  1   (~0.0 sigma)
# P_topo (ms)      =  714.541014089123  +/- 0.00148
# P'_topo (s/s)    =  -0                +/- 7.81e-10
# P''_topo (s/s^2) =  0                 +/- 3.45e-13
# P_bary (ms)      =  N/A
# P'_bary (s/s)    =  N/A
# P''_bary (s/s^2) =  N/A
# P_orb (s)        =  N/A
# asin(i)/c (s)    =  N/A
# eccentricity     =  N/A
# w (rad)          =  N/A
# T_peri           =  N/A
######################################################
   0  1101.413
   1  1023.978
   2  981.3889
   3  893.2081
   4  855.9872
   5  847.4636
   6  819.8109
   7  818.4118
   8  823.1339
   9  782.1505
  10  836.2348
  11  885.8089
  12  862.6039
  13  871.3294
  14  866.0103
  15  874.6016
  16  827.1733
  17  850.9476
  18  850.9717
  19  773.5822
  20  864.8371
  21  904.3127
  22  817.418
  23  779.6858
  24  810.6501
  25  801.2875
  26  831.2205
  27  841.722
  28  817.9165
  29  860.1683
  30  886.4623
  31  868.3481
  32  900.6443
  33  849.5274
  34  850.2148
  35  814.5381
  36  857.2919
  37  840.9974
  38  791.8718
  39  748.7259
  40  777.8066
  41  884.0951
  42  851.9496
  43  838.6476
  44  788.3312
  45  797.3352
  46  825.5676
  47  863.9756
  48  804.928
  49  718.593
  50  848.6075
  51  875.2002
  52  830.9947
  53  727.867
  54  800.9552
  55  786.1163
  56  787.3039
  57  799.2814
  58  765.4086
  59  761.8434
  60  889.6644
  61  954.9296
  62  847.6998
  63  764.5696
  64  775.5895
  65  780.8527
  66  765.6762
  67  861.0598
  68  815.8469
  69  788.3762
  70  844.5248
  71  797.3693
  72  684.7707
  73  745.2629
  74  786.1125
  75  846.872
  76  876.6345
  77  896.3872
  78  857.9144
  79  896.5723
  80  913.835
  81  865.7764
  82  825.3283
  83  743.0654
  84  833.418
  85  937.4631
  86  920.7831
  87  810.6147
  88  825.4522
  89  914.3547
  90  942.4136
  91  809.689
  92  866.2361
  93  852.3528
  94  808.2669
  95  846.5705
  96  799.373
  97  952.797
  98  921.5297
  99  938.7726
 100  918.7716
 101  934.0598
 102  893.5024
 103  844.9678
 104  772.3579
 105  762.7262
 106  898.6869
 107  909.6163
 108  948.2557
 109  898.1938
 110  824.1739
 111  762.7358
 112  797.8584
 113  836.6242
 114  943.8157
 115  834.2018
 116  887.7568
 117  911.5385
 118  928.371
 119  939.5407
 120  881.4883
 121  816.4055
 122  860.4202
 123  890.6391
 124  830.4735
 125  824.2999
 126  809.3248
 127  868.3723
 128  815.3334
 129  852.4645
 130  864.9933
 131  840.6184
 132  885.9189
 133  889.9449
 134  840.9796
 135  779.9696
 136  785.2712
 137  776.0788
 138  755.9901
 139  779.6895
 140  769.4484
 141  789.9788
 142  835.6035
 143  877.6168
 144  804.6136
 145  825.3866
 146  934.2791
 147  845.4333
 148  809.8682
 149  778.8608
 150  900.2629
 151  909.4372
 152  879.5411
 153  841.4808
 154  803.2015
 155  791.6335
 156  723.7029
 157  746.4981
 158  760.1306
 159  761.8162
 160  806.4758
 161  779.8887
 162  769.7834
 163  734.1478
 164  805.4022
 165  833.6124
 166  811.1636
 167  868.1727
 168  854.8535
 169  714.6196
 170  688.8987
 171  704.8901
 172  801.3198
 173  775.6888
 174  695.488
 175  799.9244
 176  777.6382
 177  748.5876
 178  828.4245
 179  871.2471
 180  786.748
 181  779.6484
 182  752.7196
 183  825.0988
 184  904.8033
 185  870.1896
 186  910.1011
 187  866.2853
 188  813.2507
 189  811.7393
 190  813.3137
 191  827.9438
 192  832.1389
 193  856.3302
 194  915.0411
 195  845.2021
 196  891.0162
 197  880.2684
 198  893.5338
 199  866.9775
 200  851.0658
 201  796.7704
 202  836.4894
 203  895.9283
 204  933.2178
 205  798.1426
 206  777.1313
 207  691.6982
 208  701.9691
 209  713.7685
 210  742.8159
 211  779.5945
 212  819.6974
 213  858.0063
 214  863.8816
 215  853.9178
 216  789.8794
 217  733.0659
 218  811.5601
 219  816.0994
 220  850.3253
 221  887.4395
 222  885.863
 223  890.4012
 224  830.5404
 225  799.8125
 226  755.6141
 227  783.1936
 228  850.4996
 229  843.551
 230  718.0952
 231  780.2704
 232  729.7186
 233  777.6945
 234  816.7068
 235  771.1769
 236  728.4387
 237  728.2303
 238  727.131
 239  805.2419
 240  799.7429
 241  783.2947
 242  788.5179
 243  747.2475
 244  780.5151
 245  772.2658
 246  836.2836
 247  866.6483
 248  811.8347
 249  877.2197
 250  868.05
 251  822.8223
 252  908.1981
 253  946.6833
 254  870.3315
 255  828.7881
 256  760.0508
 257  763.7665
 258  848.0753
 259  765.704
 260  816.7145
 261  783.5104
 262  774.3713
 263  741.9091
 264  729.9355
 265  751.1296
 266  801.9385
 267  801.2477
 268  867.8815
 269  819.5015
 270  758.2
 271  732.7387
 272  804.5019
 273  870.6705
 274  841.7453
 275  874.1178
 276  913.2816
 277  847.4883
 278  862.3509
 279  862.3716
 280  824.0981
 281  700.9548
 282  729.9929
 283  741.1767
 284  826.1779
 285  823.205
 286  826.2191
 287  794.1059
 288  791.5844
 289  872.541
 290  883.2178
 291  917.6339
 292  927.5691
 293  856.0149
 294  797.8849
 295  845.9683
 296  845.7155
 297  857.9051
 298  841.1558
 299  788.9461
 300  809.3646
 301  788.7089
 302  782.0394
 303  833.0835
 304  794.082
 305  814.8735
 306  813.2751
 307  829.759
 308  861.8177
 309  799.244
 310  756.6057
 311  814.4674
 312  789.3477
 313  853.054
 314  957.2895
 315  973.9022
 316  899.9907
 317  875.5392
 318  891.0663
 319  793.4959
 320  739.6292
 321  846.3893
 322  942.5073
 323  898.45
 324  908.7111
 325  876.3698
 326  834.6692
 327  810.8311
 328  824.9891
 329  881.6448
 330  854.2719
 331  838.4099
 332  792.334
 333  886.4698
 334  893.1877
 335  875.7745
 336  859.7607
 337  883.9908
 338  827.9714
 339  833.8129
 340  859.0677
 341  833.9102
 342  833.4465
 343  860.1324
 344  853.568
 345  742.2047
 346  735.3168
 347  766.6143
 348  717.5892
 349  796.9416
 350  845.7443
 351  835.4888
 352  830.7543
 353  807.6163
 354  779.515
 355  748.2886
 356  777.9272
 357  841.2826
 358  838.1849
 359  808.3089
 360  891.3664
 361  870.2925
 362  784.5499
 363  788.2366
 364  829.7587
 365  858.509
 366  914.1215
 367  872.9111
 368  791.4586
 369  827.6414
 370  861.1852
 371  873.1172
 372  858.5737
 373  809.4395
 374  861.7523
 375  849.0814
 376  941.5701
 377  838.8149
 378  737.535
 379  917.3981
 380  857.6666
 381  876.2297
 382  830.1223
 383  899.0674
 384  887.0405
 385  929.1012
 386  943.508
 387  870.6622
 388  818.5356
 389  857.418
 390  929.4062
 391  943.8976
 392  929.1517
 393  930.9508
 394  888.5084
 395  897.9957
 396  811.1329
 397  761.6913
 398  783.6777
 399  859.03
 400  930.7863
 401  863.8155
 402  840.9292
 403  877.9562
 404  894.7677
 405  812.3366
 406  810.3391
 407  853.1793
 408  902.9412
 409  834.1641
 410  823.6094
 411  844.4975
 412  823.4177
 413  845.6884
 414  835.6489
 415  835.0212
 416  753.1273
 417  791.3561
 418  750.7617
 419  755.0671
 420  763.5975
 421  815.238
 422  757.5829
 423  781.223
 424  739.1643
 425  748.0916
 426  810.3362
 427  834.8386
 428  856.974
 429  824.6336
 430  752.0274
 431  710.0611
 432  839.4009
 433  795.6124
 434  777.0693
 435  832.5003
 436  904.3456
 437  883.3472
 438  843.5162
 439  812.2213
 440  865.1476
 441  823.5604
 442  861.6714
 443  835.2427
 444  852.4246
 445  866.7206
 446  805.5344
 447  835.5376
 448  790.7765
 449  850.7009
 450  807.4686
 451  820.1392
 452  760.1291
 453  749.215
 454  789.3571
 455  765.028
 456  802.2131
 457  797.2071
 458  802.8351
 459  813.5659
 460  750.5568
 461  799.3521
 462  797.0741
 463  821.448
 464  875.3483
 465  897.2431
 466  862.3692
 467  888.3967
 468  904.5966
 469  933.9222
 470  881.4374
 471  906.2708
 472  908.735
 473  890.4797
 474  880.2424
 475  792.8945
 476  794.3954
 477  820.7505
 478  884.5397
 479  960.049
 480  897.7603
 481  883.5382
 482  878.5101
 483  864.7242
 484  908.429
 485  848.8984
 486  861.9654
 487  846.5173
 488  822.3342
 489  887.1832
 490  928.4221
 491  925.4547
 492  881.299
 493  953.1722
 494  927.7565
 495  861.0474
 496  791.6556
 497  849.2675
 498  902.0379
 499  953.122
 500  910.1202
 501  860.3734
 502  816.2678
 503  791.5529
 504  818.3439
 505  911.041
 506  980.8195
 507  1009.622
 508  943.3674
 509  941.004
 510  964.1008
 511  991.8272
