# Input file       =  1197407269.136531_cleaned.dat
# Candidate        =  PSR_0332+5434
# Telescope        =  AR
# Epoch_topo       =  58102.880221487627
# Epoch_bary       =  N/A
# T_sample         =  0.002
# Data Folded      =  7340032
# Data Avg         =  0.0582776629906075
# Data StdDev      =  0.999972112360673
# Profile Bins     =  512
# Profile Avg      =  835.531813778938 
# Profile StdDev   =  119.729697305032 
# Reduced chi-sqr  =  0.482
# Prob(Noise)      <  1   (~0.0 sigma)
# P_topo (ms)      =  714.54101417374   +/- 0.00148
# P'_topo (s/s)    =  -0                +/- 7.82e-10
# P''_topo (s/s^2) =  0                 +/- 3.45e-13
# P_bary (ms)      =  N/A
# P'_bary (s/s)    =  N/A
# P''_bary (s/s^2) =  N/A
# P_orb (s)        =  N/A
# asin(i)/c (s)    =  N/A
# eccentricity     =  N/A
# w (rad)          =  N/A
# T_peri           =  N/A
######################################################
   0  1055.637
   1  1081.818
   2  1001.271
   3  944.9562
   4  867.0464
   5  850.268
   6  838.2726
   7  814.8781
   8  826.457
   9  799.4304
  10  793.1312
  11  866.2053
  12  878.5727
  13  865.075
  14  875.8646
  15  861.2582
  16  863.85
  17  826.0839
  18  870.5807
  19  808.3511
  20  796.5634
  21  902.8977
  22  874.4171
  23  775.6517
  24  801.6824
  25  797.9495
  26  810.0013
  27  851.7292
  28  824.4337
  29  848.6163
  30  855.9849
  31  896.6736
  32  865.4062
  33  904.9719
  34  823.3565
  35  851.9392
  36  821.4963
  37  856.2344
  38  817.135
  39  771.3614
  40  745.7556
  41  840.3573
  42  877.0066
  43  843.989
  44  814.8464
  45  789.1518
  46  794.1833
  47  853.668
  48  854.5326
  49  748.4571
  50  774.2991
  51  863.5728
  52  867.954
  53  775.8178
  54  741.7776
  55  817.5828
  56  765.4281
  57  807.2952
  58  791.4122
  59  752.7725
  60  812.6801
  61  932.8141
  62  923.3077
  63  802.3213
  64  759.7948
  65  787.2775
  66  760.4487
  67  811.0428
  68  850.0889
  69  789.1192
  70  815.1392
  71  842.4014
  72  746.8267
  73  693.8072
  74  776.0109
  75  807.5654
  76  849.217
  77  888.669
  78  887.1792
  79  862.5346
  80  928.6796
  81  870.5205
  82  876.6876
  83  768.1549
  84  771.6909
  85  881.2746
  86  950.5002
  87  873.563
  88  792.8909
  89  865.6058
  90  942.6331
  91  886.5551
  92  809.2653
  93  886.916
  94  826.6906
  95  831.6555
  96  817.5122
  97  845.8897
  98  978.1095
  99  895.345
 100  950.7489
 101  906.9971
 102  938.4412
 103  861.2258
 104  825.0369
 105  743.7319
 106  829.3013
 107  913.5662
 108  918.0315
 109  942.3099
 110  870.7143
 111  782.7682
 112  775.5737
 113  814.6844
 114  890.2923
 115  906.6337
 116  822.8807
 117  926.673
 118  898.808
 119  947.5033
 120  918.3725
 121  842.2871
 122  828.4691
 123  889.3373
 124  862.0742
 125  823.1707
 126  812.5888
 127  833.9984
 128  854.8198
 129  831.1242
 130  861.9022
 131  855.9835
 132  842.0627
 133  895.9938
 134  874.5128
 135  813.2097
 136  773.7582
 137  790.1982
 138  766.2116
 139  754.2766
 140  788.644
 141  761.1725
 142  815.7196
 143  859.3376
 144  860.0831
 145  785.2342
 146  888.6113
 147  911.0657
 148  817.1041
 149  803.6602
 150  800.9654
 151  944.0421
 152  874.3799
 153  873.5483
 154  819.3691
 155  805.2626
 156  762.4679
 157  721.8146
 158  757.1675
 159  749.7854
 160  780.9699
 161  814.3664
 162  770.0172
 163  754.5793
 164  747.2345
 165  832.46
 166  823.7029
 167  818.557
 168  889.3386
 169  790.9106
 170  704.7758
 171  680.0582
 172  743.7225
 173  812.4432
 174  731.422
 175  719.5561
 176  821.4184
 177  739.7075
 178  784.2336
 179  859.5043
 180  844.1843
 181  780.5193
 182  755.8276
 183  781.6777
 184  856.7386
 185  910.8595
 186  858.2357
 187  930.6125
 188  819.1561
 189  811.9077
 190  822.1021
 191  806.131
 192  856.2799
 193  802.0725
 194  903.0248
 195  879.9356
 196  865.6439
 197  889.8506
 198  885.2107
 199  895.4424
 200  851.1072
 201  832.4014
 202  788.35
 203  880.6257
 204  910.946
 205  900.1906
 206  755.0571
 207  761.1708
 208  678.7593
 209  702.6542
 210  729.7816
 211  755.682
 212  806.4866
 213  836.1525
 214  867.1856
 215  849.9538
 216  843.5652
 217  741.602
 218  765.6164
 219  823.9251
 220  820.5563
 221  882.0731
 222  873.5919
 223  902.7107
 224  860.3738
 225  816.9251
 226  787.4052
 227  743.1342
 228  826.6324
 229  853.1248
 230  786.3342
 231  736.9799
 232  766.7236
 233  736.1418
 234  805.4511
 235  798.7202
 236  754.1212
 237  715.5418
 238  738.6571
 239  747.2825
 240  823.9975
 241  769.9888
 242  808.813
 243  757.7993
 244  761.7541
 245  777.2844
 246  791.0204
 247  860.2948
 248  847.8984
 249  813.9346
 250  911.8894
 251  825.8575
 252  863.0429
 253  929.912
 254  914.2275
 255  841.5115
 256  810.1442
 257  736.4904
 258  826.2693
 259  820.2389
 260  777.8878
 261  809.7825
 262  773.3847
 263  762.5649
 264  737.6817
 265  721.5253
 266  776.485
 267  805.2507
 268  836.0481
 269  860.4124
 270  783.9299
 271  734.0892
 272  755.9899
 273  842.5178
 274  863.0541
 275  847.4976
 276  898.8955
 277  901.2245
 278  818.2185
 279  894.8062
 280  834.113
 281  787.8959
 282  697.8443
 283  732.1555
 284  784.4965
 285  817.4534
 286  838.8987
 287  803.1907
 288  783.3676
 289  829.8828
 290  884.1596
 291  895.5505
 292  928.0211
 293  903.9095
 294  814.3143
 295  816.751
 296  846.6489
 297  858.6097
 298  844.6514
 299  831.4
 300  775.841
 301  824.702
 302  768.6682
 303  811.7413
 304  820.5266
 305  789.124
 306  819.1793
 307  805.0766
 308  853.2446
 309  847.1108
 310  759.8206
 311  797.427
 312  799.6597
 313  802.8332
 314  908.0213
 315  983.2994
 316  950.86
 317  864.4975
 318  898.2459
 319  848.373
 320  757.6206
 321  769.1422
 322  903.0694
 323  944.1915
 324  890.5679
 325  898.0566
 326  852.3539
 327  815.8329
 328  814.8336
 329  854.7689
 330  879.7288
 331  844.4544
 332  804.352
 333  840.236
 334  893.5307
 335  899.4338
 336  852.8161
 337  870.1033
 338  871.7668
 339  814.4885
 340  864.189
 341  839.3685
 342  831.5033
 343  832.3887
 344  881.6702
 345  795.6932
 346  732.5999
 347  753.6903
 348  747.53
 349  730.5493
 350  821.0193
 351  846.0325
 352  836.2574
 353  833.214
 354  786.0914
 355  766.3535
 356  755.9952
 357  805.5228
 358  857.5459
 359  806.4514
 360  854.9805
 361  891.7708
 362  836.1528
 363  762.9968
 364  821.4172
 365  830.0862
 366  888.4163
 367  915.7015
 368  820.2118
 369  801.7708
 370  834.9451
 371  887.895
 372  866.9869
 373  838.0903
 374  809.6591
 375  868.8007
 376  875.6389
 377  938.1144
 378  751.1058
 379  813.8842
 380  924.9659
 381  840.6322
 382  858.7507
 383  855.8348
 384  909.4385
 385  898.6085
 386  932.8139
 387  923.3784
 388  834.8723
 389  833.5851
 390  883.4694
 391  939.4198
 392  928.0042
 393  940.8231
 394  912.5779
 395  898.2273
 396  862.5948
 397  786.8933
 398  755.1971
 399  815.4398
 400  897.5685
 401  919.4072
 402  838.8946
 403  858.8715
 404  892.1338
 405  859.8621
 406  805.9885
 407  817.4822
 408  895.8134
 409  883.3707
 410  818.6974
 411  832.9327
 412  839.7458
 413  818.6626
 414  840.4093
 415  839.9302
 416  804.6757
 417  757.2087
 418  789.4562
 419  739.5594
 420  755.1174
 421  791.035
 422  796.3636
 423  754.2836
 424  781.8448
 425  716.1985
 426  788.3439
 427  816.0108
 428  858.0898
 429  826.41
 430  823.4846
 431  704.0901
 432  772.3194
 433  832.6033
 434  782.3432
 435  786.0212
 436  875.1932
 437  907.6031
 438  876.373
 439  809.4626
 440  843.9232
 441  833.85
 442  851.7001
 443  839.5594
 444  842.3262
 445  860.9675
 446  837.0182
 447  827.6275
 448  804.8028
 449  827.9372
 450  836.954
 451  807.2562
 452  804.1363
 453  729.5237
 454  776.1308
 455  784.4073
 456  773.3129
 457  813.2852
 458  785.2451
 459  818.0232
 460  773.1785
 461  771.8841
 462  805.215
 463  810.9292
 464  822.8111
 465  917.6907
 466  859.4032
 467  901.7009
 468  870.7224
 469  947.67
 470  893.9642
 471  884.0269
 472  916.3183
 473  889.382
 474  907.2811
 475  832.4546
 476  792.0635
 477  796.5212
 478  842.6434
 479  916.1834
 480  955.9689
 481  863.736
 482  902.0426
 483  854.8409
 484  902.5186
 485  888.6997
 486  844.3894
 487  865.5963
 488  827.9629
 489  832.1513
 490  923.4006
 491  926.7339
 492  914.504
 493  903.0068
 494  965.3259
 495  884.0887
 496  826.5488
 497  800.6174
 498  883.4884
 499  919.1639
 500  954.748
 501  875.0714
 502  842.5815
 503  802.863
 504  787.7477
 505  867.1381
 506  934.0276
 507  1011.965
 508  977.7823
 509  924.6388
 510  975.9476
 511  951.2052
