# Input file       =  1198274299.108217_cleaned.dat
# Candidate        =  PSR_0332+5434
# Telescope        =  AR
# Epoch_topo       =  58112.915290604360
# Epoch_bary       =  N/A
# T_sample         =  0.002
# Data Folded      =  7340032
# Data Avg         =  0.0507687657090378
# Data StdDev      =  1.00070146316563 
# Profile Bins     =  512
# Profile Avg      =  727.825323773654 
# Profile StdDev   =  119.817024691494 
# Reduced chi-sqr  =  0.760
# Prob(Noise)      <  1   (~0.0 sigma)
# P_topo (ms)      =  714.550745395512  +/- 0.000194
# P'_topo (s/s)    =  -0                +/- 1.02e-10
# P''_topo (s/s^2) =  0                 +/- 4.51e-14
# P_bary (ms)      =  N/A
# P'_bary (s/s)    =  N/A
# P''_bary (s/s^2) =  N/A
# P_orb (s)        =  N/A
# asin(i)/c (s)    =  N/A
# eccentricity     =  N/A
# w (rad)          =  N/A
# T_peri           =  N/A
######################################################
   0  1163.721
   1  1053.598
   2  1133.205
   3  1002.799
   4  750.4047
   5  728.741
   6  843.7186
   7  791.6501
   8  773.2156
   9  840.279
  10  756.9003
  11  725.0833
  12  787.3157
  13  794.3432
  14  740.014
  15  826.7625
  16  732.2725
  17  753.2004
  18  813.375
  19  891.7914
  20  896.4816
  21  787.5335
  22  702.2357
  23  662.7182
  24  684.8892
  25  641.3044
  26  695.7919
  27  691.267
  28  680.3885
  29  652.9265
  30  681.7965
  31  685.4311
  32  717.0225
  33  801.3969
  34  739.2943
  35  750.5761
  36  733.9111
  37  743.1337
  38  725.0272
  39  771.1646
  40  811.9399
  41  760.2197
  42  713.7145
  43  696.9785
  44  626.7577
  45  626.8637
  46  643.6616
  47  763.5022
  48  706.5044
  49  738.6738
  50  744.1356
  51  816.7968
  52  723.7539
  53  677.8372
  54  653.9976
  55  576.1735
  56  718.0803
  57  729.14
  58  871.5837
  59  723.882
  60  665.3829
  61  711.7544
  62  798.0616
  63  742.9177
  64  747.5756
  65  792.5997
  66  843.187
  67  755.3088
  68  698.5947
  69  753.4555
  70  743.046
  71  726.3555
  72  753.9315
  73  582.8701
  74  706.2427
  75  775.4731
  76  848.522
  77  826.4507
  78  746.0695
  79  717.3754
  80  634.338
  81  634.895
  82  635.7841
  83  717.9738
  84  679.3221
  85  688.296
  86  757.0651
  87  807.8341
  88  702.5253
  89  710.8378
  90  779.2119
  91  648.5997
  92  706.7026
  93  673.1262
  94  690.3421
  95  711.8644
  96  718.2834
  97  672.2789
  98  717.5508
  99  717.2432
 100  697.8398
 101  672.9293
 102  728.8766
 103  655.7615
 104  725.8467
 105  761.4984
 106  694.2484
 107  725.7975
 108  695.8876
 109  651.4778
 110  714.3085
 111  676.9775
 112  766.5005
 113  792.4725
 114  877.0174
 115  824.4272
 116  721.2557
 117  715.555
 118  722.5093
 119  697.2098
 120  612.1335
 121  553.0286
 122  573.2118
 123  639.0617
 124  667.4142
 125  740.2673
 126  785.2914
 127  683.9696
 128  644.8612
 129  714.5905
 130  649.5512
 131  599.8793
 132  604.5896
 133  684.5217
 134  623.1014
 135  593.9897
 136  682.0958
 137  723.0016
 138  649.665
 139  608.3821
 140  719.2869
 141  709.64
 142  625.8065
 143  610.0955
 144  688.0567
 145  644.1647
 146  632.1475
 147  672.703
 148  691.1942
 149  708.9684
 150  837.698
 151  758.5312
 152  730.9367
 153  719.3969
 154  681.6312
 155  708.061
 156  708.6571
 157  711.2044
 158  741.3725
 159  662.1086
 160  716.9232
 161  623.1846
 162  625.9893
 163  710.765
 164  750.7322
 165  727.4714
 166  826.7762
 167  798.8527
 168  745.822
 169  634.6492
 170  634.572
 171  766.7408
 172  822.7914
 173  749.8803
 174  762.4105
 175  674.7742
 176  625.4583
 177  747.1443
 178  768.6022
 179  688.4348
 180  652.2496
 181  792.3671
 182  793.2881
 183  751.8137
 184  784.8035
 185  744.6572
 186  713.0368
 187  660.9584
 188  664.381
 189  755.8433
 190  797.1377
 191  742.916
 192  759.71
 193  803.1828
 194  684.7499
 195  618.3645
 196  623.5316
 197  784.7142
 198  814.4153
 199  794.4188
 200  807.4384
 201  733.3348
 202  670.9521
 203  701.116
 204  706.8298
 205  615.6998
 206  756.4761
 207  811.6744
 208  781.2899
 209  698.34
 210  649.407
 211  685.5616
 212  629.3882
 213  713.457
 214  783.884
 215  779.1059
 216  806.4329
 217  790.5479
 218  739.4486
 219  797.1037
 220  717.3651
 221  761.3564
 222  676.3477
 223  674.0544
 224  753.487
 225  739.1354
 226  818.5252
 227  779.6514
 228  829.2998
 229  849.5198
 230  710.9893
 231  667.7176
 232  708.3848
 233  669.3909
 234  720.7542
 235  721.6894
 236  582.5777
 237  644.5552
 238  637.413
 239  688.4041
 240  671.8783
 241  688.5246
 242  677.4797
 243  556.1799
 244  635.9756
 245  616.8385
 246  769.9567
 247  798.9231
 248  723.5169
 249  691.431
 250  750.1371
 251  776.0618
 252  640.7379
 253  675.3065
 254  639.4556
 255  697.8337
 256  722.9686
 257  654.637
 258  706.5268
 259  680.5266
 260  684.3558
 261  704.5131
 262  770.5411
 263  713.1063
 264  680.3388
 265  710.4604
 266  655.5126
 267  698.6546
 268  789.5819
 269  864.2972
 270  719.5036
 271  669.9997
 272  569.8592
 273  596.1399
 274  663.6854
 275  818.4818
 276  869.9293
 277  839.4647
 278  746.9238
 279  739.9263
 280  819.1021
 281  725.1402
 282  701.6165
 283  694.2495
 284  739.137
 285  719.7862
 286  730.846
 287  785.3136
 288  713.9272
 289  740.7847
 290  836.6866
 291  784.6835
 292  738.6823
 293  746.469
 294  693.3895
 295  758.3464
 296  735.1199
 297  807.1223
 298  719.8244
 299  650.217
 300  652.549
 301  706.6293
 302  752.382
 303  768.243
 304  739.7207
 305  755.7944
 306  694.1096
 307  721.6076
 308  908.8021
 309  851.3671
 310  852.4709
 311  845.6436
 312  857.5866
 313  815.8977
 314  805.887
 315  846.4089
 316  762.3008
 317  807.8755
 318  777.9348
 319  737.5953
 320  709.9985
 321  652.7954
 322  749.6653
 323  720.829
 324  823.8546
 325  780.97
 326  720.9129
 327  667.5714
 328  718.5248
 329  747.1812
 330  781.2653
 331  710.068
 332  670.7072
 333  770.6448
 334  758.3644
 335  764.8089
 336  678.0074
 337  712.5281
 338  664.16
 339  612.0074
 340  598.3486
 341  583.6951
 342  696.2742
 343  830.0444
 344  783.5674
 345  855.2375
 346  681.5526
 347  634.8758
 348  701.8909
 349  609.2594
 350  603.5587
 351  696.9391
 352  668.1787
 353  712.159
 354  723.6409
 355  686.5089
 356  615.2308
 357  699.2166
 358  621.5283
 359  647.5834
 360  710.1701
 361  677.6311
 362  665.5563
 363  700.4454
 364  728.736
 365  644.3879
 366  601.9832
 367  681.5524
 368  755.8113
 369  808.2444
 370  688.4826
 371  708.709
 372  754.4528
 373  663.0606
 374  642.7894
 375  687.2016
 376  708.5682
 377  729.8375
 378  850.0546
 379  755.1945
 380  742.2137
 381  741.7452
 382  771.6719
 383  787.1888
 384  752.5059
 385  666.104
 386  629.6505
 387  740.9508
 388  660.0585
 389  648.0193
 390  733.8683
 391  796.7902
 392  776.4254
 393  722.335
 394  747.0167
 395  757.6523
 396  691.3019
 397  723.6348
 398  765.5291
 399  828.9395
 400  888.1588
 401  894.7254
 402  784.7438
 403  792.4063
 404  761.0377
 405  731.8364
 406  681.5908
 407  729.7391
 408  683.9858
 409  633.5554
 410  748.9003
 411  672.1502
 412  633.8293
 413  674.9974
 414  768.9217
 415  785.1641
 416  822.128
 417  752.5905
 418  638.6619
 419  645.6765
 420  632.2596
 421  729.8909
 422  672.2643
 423  657.2905
 424  729.6357
 425  665.4868
 426  706.5861
 427  803.6595
 428  709.5929
 429  765.538
 430  743.9932
 431  844.2744
 432  810.1807
 433  791.238
 434  788.9195
 435  770.954
 436  748.7663
 437  744.6139
 438  676.1481
 439  652.3475
 440  657.1844
 441  654.9626
 442  688.4944
 443  766.2742
 444  806.9829
 445  881.7841
 446  764.0645
 447  698.7949
 448  768.034
 449  794.7823
 450  704.9285
 451  699.2211
 452  750.3307
 453  698.0018
 454  671.9899
 455  695.9206
 456  739.8951
 457  649.4437
 458  631.227
 459  726.0573
 460  668.3417
 461  601.6914
 462  625.7286
 463  729.8069
 464  741.0797
 465  626.0248
 466  639.1425
 467  707.5247
 468  747.7001
 469  806.6216
 470  796.0596
 471  767.8146
 472  711.7981
 473  743.7316
 474  688.3817
 475  756.2765
 476  784.4359
 477  760.0598
 478  727.152
 479  669.9099
 480  732.5748
 481  722.9836
 482  697.523
 483  712.2119
 484  760.2593
 485  685.0642
 486  669.3828
 487  765.4247
 488  714.5943
 489  691.9214
 490  592.3115
 491  649.5303
 492  790.9774
 493  823.6526
 494  825.4491
 495  705.6204
 496  735.9906
 497  720.794
 498  770.1537
 499  820.071
 500  795.7383
 501  720.0061
 502  748.8386
 503  745.7811
 504  812.3861
 505  783.1845
 506  770.2658
 507  794.9927
 508  829.928
 509  921.7385
 510  958.0683
 511  1101.594
