# Input file       =  1198101969.101099_cleaned.dat
# Candidate        =  PSR_0332+5434
# Telescope        =  AR
# Epoch_topo       =  58110.920730336795
# Epoch_bary       =  N/A
# T_sample         =  0.002
# Data Folded      =  7340032
# Data Avg         =  0.0513163905651861
# Data StdDev      =  1.00028522202769 
# Profile Bins     =  512
# Profile Avg      =  735.616449491995 
# Profile StdDev   =  119.767186876183 
# Reduced chi-sqr  =  0.737
# Prob(Noise)      <  1   (~0.0 sigma)
# P_topo (ms)      =  714.548906709288  +/- 0.000147
# P'_topo (s/s)    =  -0                +/- 7.76e-11
# P''_topo (s/s^2) =  0                 +/- 3.42e-14
# P_bary (ms)      =  N/A
# P'_bary (s/s)    =  N/A
# P''_bary (s/s^2) =  N/A
# P_orb (s)        =  N/A
# asin(i)/c (s)    =  N/A
# eccentricity     =  N/A
# w (rad)          =  N/A
# T_peri           =  N/A
######################################################
   0  1186.491
   1  1030.017
   2  960.6215
   3  901.4487
   4  820.1342
   5  784.2385
   6  793.6573
   7  710.1318
   8  698.2079
   9  663.1272
  10  741.9351
  11  777.1052
  12  778.1537
  13  816.6782
  14  729.6215
  15  744.5122
  16  731.1413
  17  692.0198
  18  712.2911
  19  881.863
  20  868.1968
  21  779.984
  22  695.6604
  23  737.0902
  24  753.6959
  25  793.7994
  26  854.2091
  27  870.6221
  28  782.7338
  29  658.6819
  30  763.3321
  31  787.2065
  32  708.0544
  33  717.1666
  34  766.287
  35  819.7974
  36  805.9551
  37  787.5299
  38  857.3097
  39  706.4738
  40  643.6553
  41  769.0775
  42  773.983
  43  806.1141
  44  819.8205
  45  731.1081
  46  636.3289
  47  788.6726
  48  767.2211
  49  718.1781
  50  675.5588
  51  737.8915
  52  771.8374
  53  583.972
  54  700.7208
  55  831.8123
  56  777.6623
  57  716.4637
  58  710.3972
  59  817.9024
  60  867.8397
  61  874.5137
  62  843.7209
  63  747.4695
  64  739.1696
  65  797.6004
  66  852.4286
  67  824.566
  68  781.2804
  69  924.5923
  70  791.9197
  71  716.3629
  72  736.5403
  73  828.3832
  74  784.4035
  75  816.0323
  76  722.926
  77  675.1283
  78  735.6883
  79  689.3913
  80  648.4687
  81  616.221
  82  641.5434
  83  737.7004
  84  711.5263
  85  572.3006
  86  599.8562
  87  725.5795
  88  729.2422
  89  620.7321
  90  724.0016
  91  815.0801
  92  644.437
  93  656.8015
  94  664.4585
  95  706.1038
  96  713.8546
  97  763.5256
  98  732.3063
  99  674.7297
 100  768.7023
 101  803.6858
 102  691.3026
 103  702.3428
 104  725.7965
 105  748.249
 106  791.1688
 107  749.6371
 108  740.97
 109  697.571
 110  694.0814
 111  771.3203
 112  786.3665
 113  714.1816
 114  692.7895
 115  678.8558
 116  667.3924
 117  616.0175
 118  621.4302
 119  739.7097
 120  810.5914
 121  757.8334
 122  828.6851
 123  786.2923
 124  770.6755
 125  777.6854
 126  795.5203
 127  779.408
 128  742.8501
 129  745.9363
 130  809.7871
 131  760.5014
 132  704.2637
 133  737.0545
 134  731.8657
 135  658.2183
 136  711.9625
 137  660.3364
 138  695.2565
 139  766.7062
 140  771.7443
 141  726.9756
 142  673.7961
 143  730.495
 144  853.2985
 145  749.1775
 146  646.7809
 147  701.8791
 148  725.3008
 149  663.1043
 150  718.7428
 151  707.928
 152  639.2648
 153  694.4343
 154  590.2721
 155  677.74
 156  698.6201
 157  690.391
 158  603.4917
 159  645.6136
 160  689.2515
 161  768.2572
 162  666.8462
 163  678.7894
 164  631.4041
 165  538.006
 166  478.1766
 167  591.067
 168  628.8719
 169  761.2509
 170  749.5215
 171  636.236
 172  726.5255
 173  738.2636
 174  749.2795
 175  640.8433
 176  689.5126
 177  720.2634
 178  725.9132
 179  754.6876
 180  727.049
 181  721.3337
 182  766.5215
 183  731.1176
 184  711.1685
 185  649.6979
 186  784.4625
 187  792.5829
 188  690.2538
 189  621.8613
 190  707.1514
 191  822.7023
 192  849.4831
 193  815.0157
 194  702.9047
 195  696.7622
 196  742.3497
 197  821.5837
 198  815.6597
 199  843.4777
 200  789.7595
 201  680.6502
 202  745.313
 203  760.5339
 204  725.1912
 205  720.4602
 206  739.1296
 207  781.796
 208  777.9753
 209  745.0836
 210  712.3669
 211  818.0798
 212  762.4408
 213  715.0688
 214  608.7519
 215  706.7467
 216  776.7746
 217  645.9215
 218  636.9585
 219  725.8035
 220  693.7655
 221  590.4772
 222  647.678
 223  644.626
 224  676.2548
 225  699.5411
 226  678.6906
 227  689.726
 228  652.7365
 229  681.024
 230  754.9043
 231  765.4458
 232  828.4869
 233  794.6152
 234  784.03
 235  836.8804
 236  846.0981
 237  783.1797
 238  764.0605
 239  749.1513
 240  763.1647
 241  769.0955
 242  772.2138
 243  804.7368
 244  769.5071
 245  812.4592
 246  802.0645
 247  701.9363
 248  704.5941
 249  759.8823
 250  705.2813
 251  763.9387
 252  716.4562
 253  633.5585
 254  650.5953
 255  797.0189
 256  732.0224
 257  721.0915
 258  803.6411
 259  796.7576
 260  780.1546
 261  737.8431
 262  880.487
 263  916.0451
 264  798.5597
 265  903.5875
 266  768.0413
 267  757.7484
 268  741.4348
 269  770.7308
 270  784.7343
 271  808.5704
 272  820.7045
 273  880.5308
 274  742.9788
 275  725.2763
 276  915.8762
 277  766.6008
 278  657.0049
 279  730.1347
 280  770.0229
 281  773.0353
 282  850.3983
 283  837.7114
 284  781.1753
 285  707.0992
 286  763.0005
 287  760.1868
 288  692.3676
 289  684.1984
 290  704.3091
 291  770.4968
 292  709.626
 293  668.0092
 294  653.6448
 295  762.3491
 296  771.3563
 297  668.162
 298  739.1482
 299  739.8209
 300  717.6831
 301  645.2563
 302  781.3534
 303  851.0245
 304  804.8286
 305  832.1959
 306  866.8132
 307  664.7375
 308  744.814
 309  734.0603
 310  750.8022
 311  725.6705
 312  758.9587
 313  754.3509
 314  719.5491
 315  747.9339
 316  788.3011
 317  760.9125
 318  677.8052
 319  594.4019
 320  637.5046
 321  543.9969
 322  633.6376
 323  833.4598
 324  737.5758
 325  608.4611
 326  667.4512
 327  669.0077
 328  623.7931
 329  657.2777
 330  768.6078
 331  728.0858
 332  628.8501
 333  707.0889
 334  698.4885
 335  669.0088
 336  714.1701
 337  759.8616
 338  753.4696
 339  721.3536
 340  715.2703
 341  762.2755
 342  714.2216
 343  664.7914
 344  743.9062
 345  685.8668
 346  702.6781
 347  726.4172
 348  741.6748
 349  664.1376
 350  635.3535
 351  688.1572
 352  754.6278
 353  670.7757
 354  696.0641
 355  827.7405
 356  761.2894
 357  829.4483
 358  782.3721
 359  730.7667
 360  651.758
 361  700.4481
 362  710.3611
 363  705.9191
 364  739.2176
 365  776.213
 366  785.306
 367  751.4069
 368  752.4128
 369  715.6152
 370  742.2038
 371  703.4124
 372  567.93
 373  613.1375
 374  753.5455
 375  757.088
 376  742.8494
 377  700.3488
 378  749.0623
 379  807.8967
 380  729.5699
 381  680.7047
 382  603.8169
 383  635.3006
 384  783.8251
 385  802.8928
 386  677.4487
 387  701.3486
 388  703.2224
 389  650.3121
 390  591.8712
 391  602.0322
 392  683.7161
 393  686.648
 394  724.7325
 395  684.0824
 396  683.6954
 397  759.9542
 398  725.6991
 399  683.0271
 400  769.5733
 401  712.8759
 402  610.0143
 403  712.5845
 404  722.376
 405  686.3341
 406  812.2292
 407  725.4175
 408  702.621
 409  723.4023
 410  643.1497
 411  629.626
 412  686.655
 413  753.2185
 414  721.0638
 415  687.0291
 416  680.0856
 417  780.2012
 418  874.6585
 419  841.0312
 420  654.5325
 421  760.3834
 422  781.9042
 423  776.3822
 424  796.4263
 425  731.7991
 426  692.9612
 427  719.2792
 428  834.3525
 429  723.8729
 430  664.4518
 431  756.9115
 432  759.4014
 433  704.4345
 434  766.1465
 435  776.2209
 436  825.855
 437  721.7681
 438  671.738
 439  727.6345
 440  745.3046
 441  812.6727
 442  714.8364
 443  693.955
 444  702.1708
 445  632.553
 446  740.5613
 447  728.2869
 448  764.7718
 449  753.8408
 450  701.394
 451  733.2389
 452  688.4319
 453  632.2548
 454  616.4425
 455  696.1086
 456  760.0656
 457  721.6313
 458  702.3347
 459  750.0613
 460  789.4908
 461  723.2183
 462  712.2924
 463  671.0206
 464  683.7934
 465  678.7001
 466  788.991
 467  754.084
 468  753.4141
 469  722.9751
 470  689.3852
 471  667.2339
 472  656.4351
 473  672.1581
 474  565.0773
 475  596.3128
 476  712.3932
 477  728.1686
 478  762.8147
 479  740.5117
 480  750.0843
 481  734.9332
 482  756.2164
 483  743.0873
 484  691.4636
 485  746.5579
 486  656.5536
 487  700.0591
 488  761.6034
 489  798.7159
 490  819.4791
 491  838.2375
 492  820.5957
 493  688.8708
 494  713.9556
 495  942.8983
 496  894.8747
 497  784.873
 498  708.7865
 499  717.0605
 500  769.3773
 501  692.7606
 502  683.3711
 503  723.2331
 504  691.1696
 505  695.1694
 506  690.2332
 507  800.2639
 508  917.4106
 509  974.4532
 510  1023.716
 511  1003.601
