# Input file       =  1199825015.109469_cleaned.dat
# Candidate        =  PSR_0332+5434
# Telescope        =  AR
# Epoch_topo       =  58130.863392470703
# Epoch_bary       =  N/A
# T_sample         =  0.002
# Data Folded      =  7340032
# Data Avg         =  0.0430412795389474
# Data StdDev      =  1.000236211636   
# Profile Bins     =  512
# Profile Avg      =  617.030988812435 
# Profile StdDev   =  119.761318713171 
# Reduced chi-sqr  =  0.946
# Prob(Noise)      <  0.806   (~0.0 sigma)
# P_topo (ms)      =  714.565417132833  +/- 8.13e-05
# P'_topo (s/s)    =  -0                +/- 4.29e-11
# P''_topo (s/s^2) =  0                 +/- 1.89e-14
# P_bary (ms)      =  N/A
# P'_bary (s/s)    =  N/A
# P''_bary (s/s^2) =  N/A
# P_orb (s)        =  N/A
# asin(i)/c (s)    =  N/A
# eccentricity     =  N/A
# w (rad)          =  N/A
# T_peri           =  N/A
######################################################
   0  1094.447
   1  1016.64
   2  879.116
   3  714.2565
   4  725.0703
   5  729.5577
   6  665.7615
   7  808.9089
   8  749.391
   9  719.282
  10  724.1829
  11  613.5621
  12  587.5623
  13  503.8448
  14  619.5269
  15  624.2147
  16  656.494
  17  680.5327
  18  624.821
  19  574.5161
  20  657.3602
  21  697.0793
  22  648.7527
  23  583.4468
  24  531.6475
  25  544.0854
  26  659.2783
  27  701.7969
  28  619.2181
  29  690.2868
  30  682.4904
  31  702.4274
  32  706.4014
  33  687.3243
  34  622.6545
  35  587.8057
  36  676.4408
  37  659.1646
  38  654.7274
  39  678.2057
  40  745.3573
  41  647.2784
  42  671.262
  43  802.5762
  44  819.5374
  45  727.6774
  46  672.6677
  47  723.5657
  48  654.0787
  49  585.0904
  50  597.9561
  51  567.9699
  52  632.5203
  53  576.8878
  54  576.8902
  55  614.294
  56  605.3749
  57  673.1016
  58  712.7571
  59  595.832
  60  537.3983
  61  567.1117
  62  614.3705
  63  579.3835
  64  596.4431
  65  678.8481
  66  622.4008
  67  625.7326
  68  625.2194
  69  624.8703
  70  554.9218
  71  656.2191
  72  766.3771
  73  752.449
  74  647.6592
  75  586.9507
  76  552.2629
  77  572.7889
  78  573.205
  79  701.7287
  80  664.9273
  81  584.3001
  82  699.8637
  83  724.4077
  84  574.431
  85  591.2919
  86  630.6478
  87  648.2988
  88  601.3043
  89  605.4029
  90  560.2706
  91  585.8825
  92  522.4465
  93  552.5748
  94  556.6508
  95  495.3458
  96  537.6478
  97  557.5659
  98  589.7999
  99  550.6442
 100  629.2067
 101  655.9492
 102  635.3856
 103  611.3925
 104  504.7546
 105  445.0015
 106  437.9383
 107  523.4573
 108  552.5587
 109  496.4202
 110  662.662
 111  630.706
 112  572.2972
 113  597.1044
 114  533.6797
 115  360.8588
 116  561.4962
 117  561.7441
 118  568.7273
 119  638.5085
 120  605.2104
 121  577.2877
 122  612.4766
 123  603.3721
 124  596.2802
 125  595.8888
 126  657.0801
 127  609.1015
 128  596.5339
 129  624.4778
 130  575.6819
 131  579.4281
 132  646.3524
 133  573.2492
 134  547.1695
 135  615.6099
 136  668.6096
 137  687.8358
 138  658.9166
 139  656.3765
 140  593.6508
 141  531.5733
 142  493.726
 143  545.8174
 144  708.1682
 145  785.4261
 146  637.9671
 147  575.6647
 148  596.9615
 149  611.6829
 150  467.6056
 151  403.9658
 152  467.9323
 153  570.2241
 154  680.4532
 155  608.5629
 156  510.2994
 157  510.9612
 158  640.6638
 159  724.7239
 160  702.4197
 161  648.797
 162  562.7375
 163  493.1007
 164  511.4718
 165  571.7598
 166  601.5275
 167  667.4959
 168  710.986
 169  586.2311
 170  594.5409
 171  630.76
 172  631.522
 173  552.4683
 174  559.3186
 175  678.4485
 176  735.4091
 177  614.9442
 178  648.4979
 179  692.444
 180  692.2354
 181  523.0563
 182  568.6622
 183  712.2233
 184  571.6497
 185  600.2256
 186  601.3901
 187  613.45
 188  652.1769
 189  626.1753
 190  620.1409
 191  521.8929
 192  414.1118
 193  482.1975
 194  590.5247
 195  557.2175
 196  447.1258
 197  578.9647
 198  481.5237
 199  476.7739
 200  480.1364
 201  558.6857
 202  506.6407
 203  496.8042
 204  549.6837
 205  583.3427
 206  602.1154
 207  590.4535
 208  649.3611
 209  524.9161
 210  454.7781
 211  553.7504
 212  583.6121
 213  589.657
 214  430.0043
 215  569.8734
 216  694.421
 217  595.8597
 218  495.9937
 219  573.8587
 220  677.7632
 221  643.9184
 222  546.6559
 223  554.7895
 224  578.2923
 225  571.45
 226  743.2125
 227  722.369
 228  635.2365
 229  628.0922
 230  652.9271
 231  670.7338
 232  610.4453
 233  521.4741
 234  529.8572
 235  506.0987
 236  594.3129
 237  628.2336
 238  554.7404
 239  627.1541
 240  592.2661
 241  530.5706
 242  490.3212
 243  581.6179
 244  612.0553
 245  714.1262
 246  697.0352
 247  722.6628
 248  653.9159
 249  577.464
 250  612.5874
 251  702.7044
 252  649.4663
 253  736.8796
 254  701.5073
 255  687.201
 256  684.9451
 257  625.8956
 258  723.0562
 259  679.6232
 260  586.2577
 261  621.5036
 262  713.113
 263  717.8724
 264  551.1749
 265  678.7584
 266  668.6769
 267  606.8117
 268  633.8854
 269  741.2707
 270  667.8285
 271  604.2822
 272  480.0054
 273  545.7132
 274  658.6656
 275  654.0259
 276  704.2397
 277  662.8022
 278  637.1119
 279  593.2336
 280  599.1415
 281  639.7314
 282  642.7535
 283  774.1031
 284  663.5522
 285  615.582
 286  592.5361
 287  600.0814
 288  640.5553
 289  579.3354
 290  552.0049
 291  474.1888
 292  512.8787
 293  640.5795
 294  590.0158
 295  510.7035
 296  593.9534
 297  595.5452
 298  741.9921
 299  577.6322
 300  539.6236
 301  561.1557
 302  651.7559
 303  620.0729
 304  641.9955
 305  499.7314
 306  466.5971
 307  533.0442
 308  563.9653
 309  677.8147
 310  677.4623
 311  658.487
 312  689.3384
 313  734.9935
 314  630.0927
 315  571.3716
 316  581.2829
 317  800.2577
 318  766.3627
 319  742.1401
 320  584.0754
 321  553.796
 322  663.2424
 323  778.0887
 324  605.9081
 325  654.8401
 326  716.0151
 327  647.5689
 328  663.4437
 329  575.1239
 330  640.3238
 331  636.1652
 332  475.1042
 333  576.2599
 334  651.4738
 335  654.0153
 336  629.6282
 337  680.0492
 338  602.3778
 339  575.9326
 340  580.7614
 341  679.0109
 342  546.7523
 343  484.112
 344  451.0453
 345  491.5152
 346  626.9991
 347  647.8919
 348  628.2451
 349  559.9128
 350  648.3707
 351  653.3024
 352  617.5263
 353  571.4973
 354  539.35
 355  575.0759
 356  695.321
 357  580.4163
 358  547.4005
 359  600.1355
 360  583.6523
 361  721.3051
 362  637.1098
 363  473.5537
 364  511.224
 365  575.4198
 366  520.2126
 367  519.5538
 368  527.5357
 369  663.9079
 370  576.4926
 371  551.3972
 372  574.3879
 373  665.9293
 374  662.7517
 375  544.3516
 376  608.0954
 377  639.4338
 378  650.5192
 379  715.5452
 380  683.3326
 381  602.4683
 382  585.1252
 383  622.717
 384  666.3121
 385  634.1969
 386  607.2882
 387  586.9853
 388  555.4804
 389  597.0933
 390  699.6915
 391  683.5621
 392  663.7045
 393  721.4482
 394  610.2524
 395  464.5803
 396  452.3336
 397  603.2966
 398  622.7698
 399  600.2886
 400  624.444
 401  581.3895
 402  593.962
 403  670.6066
 404  665.4476
 405  642.1202
 406  553.4191
 407  573.0649
 408  587.0558
 409  724.38
 410  736.9572
 411  702.1479
 412  769.353
 413  793.9365
 414  639.7586
 415  567.4155
 416  669.4649
 417  697.6443
 418  587.5799
 419  659.769
 420  506.701
 421  419.7517
 422  450.3409
 423  640.7734
 424  674.386
 425  611.3278
 426  728.3328
 427  760.14
 428  628.7863
 429  536.4442
 430  594.069
 431  570.2985
 432  490.9193
 433  599.1821
 434  580.4839
 435  511.9755
 436  382.3241
 437  505.7732
 438  611.2867
 439  526.6061
 440  530.9597
 441  583.1138
 442  567.3858
 443  502.589
 444  623.076
 445  660.8428
 446  701.5891
 447  720.4847
 448  735.2929
 449  704.0171
 450  598.4969
 451  635.5518
 452  557.7205
 453  556.6971
 454  507.2469
 455  598.5942
 456  640.515
 457  628.6033
 458  615.5967
 459  669.8768
 460  709.3981
 461  585.1646
 462  658.2481
 463  538.0336
 464  604.683
 465  571.9194
 466  631.2747
 467  613.4387
 468  667.5521
 469  695.3094
 470  576.9584
 471  520.6234
 472  600.5596
 473  588.8253
 474  643.8231
 475  580.8552
 476  679.8584
 477  664.4547
 478  574.8503
 479  536.7428
 480  610.2527
 481  543.3236
 482  580.95
 483  679.7253
 484  727.2531
 485  623.2421
 486  491.9121
 487  582.5391
 488  575.4448
 489  618.5927
 490  678.8026
 491  655.5437
 492  706.9221
 493  607.2093
 494  557.7994
 495  567.6894
 496  597.6944
 497  639.887
 498  635.6454
 499  579.955
 500  622.5289
 501  551.3947
 502  543.4573
 503  630.613
 504  656.4041
 505  726.4092
 506  731.6425
 507  836.3466
 508  769.0903
 509  865.0263
 510  918.8879
 511  1019.991
