# Input file       =  1199537139.093935_cleaned.dat
# Candidate        =  PSR_0332+5434
# Telescope        =  AR
# Epoch_topo       =  58127.531494142764
# Epoch_bary       =  N/A
# T_sample         =  0.002
# Data Folded      =  7143424
# Data Avg         =  0.0425485478132963
# Data StdDev      =  1.00014200011045 
# Profile Bins     =  512
# Profile Avg      =  593.477751311199 
# Profile StdDev   =  118.13535733391  
# Reduced chi-sqr  =  1.104
# Prob(Noise)      <  0.0512   (~1.6 sigma)
# P_topo (ms)      =  714.562611273578  +/- 0.000176
# P'_topo (s/s)    =  -0                +/- 9.57e-11
# P''_topo (s/s^2) =  0                 +/- 4.34e-14
# P_bary (ms)      =  N/A
# P'_bary (s/s)    =  N/A
# P''_bary (s/s^2) =  N/A
# P_orb (s)        =  N/A
# asin(i)/c (s)    =  N/A
# eccentricity     =  N/A
# w (rad)          =  N/A
# T_peri           =  N/A
######################################################
   0  1065.072
   1  953.8371
   2  870.1476
   3  796.278
   4  768.5914
   5  670.0134
   6  634.3853
   7  631.5125
   8  610.0097
   9  652.5984
  10  670.7458
  11  617.2583
  12  725.3117
  13  724.8984
  14  743.095
  15  693.9231
  16  565.2017
  17  646.9294
  18  615.4761
  19  575.9337
  20  561.8209
  21  581.0906
  22  584.5826
  23  640.2678
  24  674.0511
  25  515.8996
  26  563.3354
  27  603.8877
  28  527.3212
  29  598.3604
  30  658.5838
  31  711.3505
  32  526.847
  33  393.1268
  34  562.9288
  35  665.1837
  36  624.3015
  37  535.563
  38  531.0422
  39  602.8171
  40  617.4006
  41  629.6562
  42  682.2129
  43  700.358
  44  650.8812
  45  691.9547
  46  698.3727
  47  532.4333
  48  491.8507
  49  475.302
  50  391.8648
  51  550.1194
  52  615.5009
  53  682.546
  54  681.5408
  55  605.4089
  56  623.2767
  57  641.6636
  58  522.7681
  59  613.5104
  60  679.8577
  61  592.8507
  62  641.39
  63  610.5117
  64  668.2667
  65  689.3523
  66  656.3429
  67  590.4661
  68  499.4024
  69  541.0403
  70  658.2357
  71  730.3588
  72  609.5316
  73  600.5907
  74  598.7346
  75  531.7067
  76  615.4147
  77  555.3768
  78  568.8082
  79  605.3594
  80  546.4941
  81  515.7852
  82  603.4027
  83  574.5781
  84  577.564
  85  549.2281
  86  596.576
  87  625.327
  88  529.575
  89  602.2274
  90  551.146
  91  622.5413
  92  623.6093
  93  710.1446
  94  686.8244
  95  602.926
  96  402.9305
  97  399.648
  98  495.3837
  99  495.686
 100  496.9401
 101  568.5655
 102  555.9734
 103  571.5173
 104  602.2657
 105  674.5333
 106  582.9019
 107  431.0509
 108  571.8563
 109  523.2154
 110  636.2241
 111  803.0235
 112  712.5236
 113  502.4249
 114  502.4029
 115  598.1081
 116  617.077
 117  650.856
 118  588.3806
 119  471.3581
 120  495.6712
 121  594.4614
 122  560.2737
 123  577.5617
 124  517.8995
 125  551.5266
 126  482.7905
 127  571.9471
 128  578.7634
 129  523.1085
 130  627.799
 131  500.7011
 132  516.9067
 133  575.7588
 134  474.9248
 135  486.7155
 136  525.8799
 137  561.3198
 138  522.2299
 139  641.3508
 140  590.7643
 141  592.309
 142  567.4772
 143  553.0648
 144  707.1425
 145  719.1812
 146  635.4526
 147  513.664
 148  574.1599
 149  727.5641
 150  623.565
 151  596.6094
 152  555.4246
 153  638.3284
 154  566.2512
 155  615.5727
 156  707.3198
 157  768.8978
 158  608.3085
 159  554.126
 160  616.5059
 161  585.5399
 162  569.9762
 163  561.7142
 164  685.5645
 165  688.8423
 166  657.0714
 167  568.3406
 168  411.261
 169  547.4491
 170  665.7252
 171  571.0045
 172  605.4602
 173  601.1862
 174  592.5581
 175  568.8833
 176  573.0038
 177  574.2147
 178  484.1901
 179  440.5388
 180  489.1478
 181  538.7539
 182  602.7067
 183  537.4045
 184  586.668
 185  699.566
 186  678.5375
 187  578.8145
 188  577.2706
 189  600.285
 190  603.9969
 191  818.2427
 192  802.5395
 193  695.0645
 194  765.3538
 195  610.6258
 196  524.2164
 197  596.2221
 198  691.9105
 199  664.845
 200  661.3197
 201  606.7189
 202  654.2344
 203  622.6282
 204  628.0855
 205  666.4873
 206  665.4349
 207  635.2929
 208  595.0942
 209  509.706
 210  536.1169
 211  447.7946
 212  529.605
 213  525.9405
 214  689.3907
 215  693.1006
 216  516.678
 217  548.7684
 218  512.902
 219  478.5764
 220  527.5727
 221  660.9304
 222  668.09
 223  712.8761
 224  507.4199
 225  639.7301
 226  577.1064
 227  509.6631
 228  531.9464
 229  510.6338
 230  571.4861
 231  667.6165
 232  707.2775
 233  676.993
 234  652.0417
 235  752.571
 236  722.9893
 237  492.7996
 238  406.754
 239  565.4661
 240  558.5881
 241  538.6099
 242  581.6956
 243  614.8928
 244  494.5668
 245  469.8646
 246  547.928
 247  527.5749
 248  538.1828
 249  543.1144
 250  573.1498
 251  506.8988
 252  581.6722
 253  499.6698
 254  373.0021
 255  462.073
 256  412.1801
 257  505.3138
 258  561.4901
 259  635.8779
 260  630.2691
 261  622.3275
 262  689.7923
 263  597.029
 264  541.5043
 265  511.7017
 266  541.926
 267  607.3352
 268  721.4708
 269  803.4716
 270  652.3105
 271  568.908
 272  627.9924
 273  737.8223
 274  722.6682
 275  638.2021
 276  614.0925
 277  541.1049
 278  522.2667
 279  546.366
 280  609.1556
 281  619.5135
 282  605.8348
 283  579.133
 284  777.7213
 285  723.5492
 286  556.1804
 287  560.7329
 288  557.4359
 289  679.9306
 290  633.8323
 291  613.5263
 292  643.2169
 293  529.3931
 294  631.8705
 295  550.2146
 296  535.6299
 297  670.4147
 298  745.8992
 299  616.649
 300  551.1718
 301  500.6182
 302  515.0992
 303  577.1559
 304  476.5747
 305  511.4663
 306  662.988
 307  649.3055
 308  673.1367
 309  610.7808
 310  565.2162
 311  519.3793
 312  539.9218
 313  527.8709
 314  427.0449
 315  394.2205
 316  523.4379
 317  511.4654
 318  630.0682
 319  593.4198
 320  539.4823
 321  534.088
 322  595.297
 323  640.2222
 324  569.5201
 325  615.3204
 326  731.3682
 327  730.6404
 328  662.6705
 329  581.6505
 330  491.7347
 331  618.4882
 332  638.8412
 333  603.8846
 334  524.8787
 335  481.7547
 336  472.3214
 337  571.223
 338  551.4852
 339  532.5496
 340  492.7822
 341  536.0747
 342  561.0596
 343  584.6024
 344  580.1818
 345  527.6196
 346  648.6104
 347  685.1891
 348  593.0563
 349  556.2097
 350  572.0604
 351  586.6449
 352  618.0438
 353  611.8153
 354  690.6625
 355  693.0818
 356  670.5434
 357  614.751
 358  567.4774
 359  661.3707
 360  681.2999
 361  507.841
 362  552.605
 363  785.6277
 364  675.9612
 365  704.4119
 366  682.2888
 367  578.3271
 368  595.2158
 369  599.304
 370  706.0002
 371  709.532
 372  614.2638
 373  642.9533
 374  545.0279
 375  519.936
 376  664.7911
 377  663.5756
 378  586.4926
 379  634.9584
 380  538.3127
 381  444.6335
 382  556.0563
 383  595.9265
 384  571.3254
 385  528.0146
 386  592.014
 387  474.4549
 388  483.3614
 389  596.8257
 390  578.7294
 391  624.3096
 392  628.5815
 393  528.1005
 394  556.1064
 395  536.7582
 396  544.7733
 397  543.9883
 398  501.2134
 399  522.5234
 400  625.1194
 401  651.233
 402  586.5422
 403  494.6686
 404  522.5312
 405  673.104
 406  445.9615
 407  399.7112
 408  716.7151
 409  744.9303
 410  691.3426
 411  655.6657
 412  544.9529
 413  512.5508
 414  517.0851
 415  422.1414
 416  534.7076
 417  603.7626
 418  725.7731
 419  618.7871
 420  528.3139
 421  431.3801
 422  350.8115
 423  473.2539
 424  455.1756
 425  509.4088
 426  597.9155
 427  610.2906
 428  566.4151
 429  535.8489
 430  521.2789
 431  555.7103
 432  502.4703
 433  577.068
 434  562.8616
 435  410.7531
 436  473.6607
 437  571.5449
 438  551.1329
 439  551.0513
 440  553.9059
 441  609.5478
 442  541.1836
 443  531.084
 444  442.0463
 445  484.9793
 446  536.8497
 447  559.3217
 448  500.3981
 449  586.395
 450  503.6432
 451  544.3495
 452  503.0536
 453  612.1343
 454  667.6454
 455  586.8687
 456  429.552
 457  468.0289
 458  609.5624
 459  586.3939
 460  602.2531
 461  609.8024
 462  639.2209
 463  583.1608
 464  509.2069
 465  511.019
 466  585.8021
 467  587.0397
 468  598.9758
 469  596.4521
 470  548.188
 471  580.5161
 472  463.7749
 473  576.3942
 474  700.6774
 475  668.2135
 476  612.1689
 477  581.6895
 478  473.4649
 479  618.8223
 480  557.8828
 481  482.7171
 482  343.8589
 483  631.3331
 484  724.5749
 485  616.5541
 486  555.2637
 487  537.0177
 488  624.7249
 489  623.9543
 490  657.9068
 491  686.8832
 492  743.5165
 493  717.5803
 494  720.2149
 495  620.415
 496  628.5222
 497  617.4409
 498  595.8552
 499  668.3521
 500  695.3325
 501  743.9101
 502  625.9111
 503  581.0688
 504  489.3003
 505  600.5438
 506  682.228
 507  727.9557
 508  748.9827
 509  828.7787
 510  975.8192
 511  1049.62
