# Input file       =  1200226254.109845_cleaned.dat
# Candidate        =  PSR_0332+5434
# Telescope        =  AR
# Epoch_topo       =  58135.507362382465
# Epoch_bary       =  N/A
# T_sample         =  0.002
# Data Folded      =  7208960
# Data Avg         =  0.016994952684631
# Data StdDev      =  0.999997426434775
# Profile Bins     =  512
# Profile Avg      =  239.292902091783 
# Profile StdDev   =  118.658870416402 
# Reduced chi-sqr  =  1.456
# Prob(Noise)      <  6.53e-11   (~6.4 sigma)
# P_topo (ms)      =  714.568230663546  +/- 0.000197
# P'_topo (s/s)    =  -0                +/- 1.06e-10
# P''_topo (s/s^2) =  0                 +/- 4.76e-14
# P_bary (ms)      =  N/A
# P'_bary (s/s)    =  N/A
# P''_bary (s/s^2) =  N/A
# P_orb (s)        =  N/A
# asin(i)/c (s)    =  N/A
# eccentricity     =  N/A
# w (rad)          =  N/A
# T_peri           =  N/A
######################################################
   0  973.6635
   1  860.3957
   2  711.9771
   3  491.1076
   4  272.5215
   5  204.1698
   6  347.829
   7  354.0474
   8  359.259
   9  286.2395
  10  309.9318
  11  381.3934
  12  243.6414
  13  233.0199
  14  324.3487
  15  274.8713
  16  318.7148
  17  175.9753
  18  351.4051
  19  321.6464
  20  175.6472
  21  279.8491
  22  251.2678
  23  279.4818
  24  307.1975
  25  296.6598
  26  192.758
  27  346.4067
  28  274.9073
  29  178.3187
  30  302.601
  31  276.3992
  32  121.6977
  33  143.0591
  34  306.691
  35  371.0556
  36  249.2504
  37  337.6561
  38  287.1617
  39  139.7403
  40  194.3541
  41  138.7148
  42  164.3525
  43  208.0373
  44  373.4727
  45  403.9267
  46  329.5795
  47  219.7811
  48  362.9233
  49  282.8759
  50  204.85
  51  199.8425
  52  157.365
  53  176.1436
  54  211.6494
  55  261.4573
  56  294.1217
  57  277.5074
  58  318.9622
  59  212.7241
  60  329.1978
  61  335.5842
  62  349.8151
  63  322.5709
  64  266.4485
  65  221.9192
  66  236.4072
  67  222.8231
  68  257.1083
  69  63.25179
  70  225.0893
  71  376.5845
  72  297.9035
  73  167.4916
  74  166.6298
  75  290.0035
  76  381.0265
  77  307.5565
  78  187.3317
  79  101.0416
  80  141.5807
  81  183.4498
  82  145.8618
  83  177.8618
  84  340.4836
  85  374.2564
  86  68.42979
  87  172.0963
  88  329.5543
  89  340.3095
  90  265.8389
  91  156.7037
  92  180.579
  93  239.5273
  94  205.2178
  95  160.945
  96  184.56
  97  303.3109
  98  437.248
  99  206.8358
 100  292.757
 101  313.6802
 102  306.8578
 103  199.4177
 104  137.9945
 105  51.49265
 106  110.2994
 107  116.3372
 108  146.1456
 109  239.7622
 110  110.0622
 111  173.6563
 112  51.24453
 113  29.81815
 114  147.2344
 115  56.43254
 116  187.66
 117  106.6355
 118  -53.28657
 119  24.88214
 120  203.4862
 121  218.0615
 122  105.2848
 123  121.457
 124  141.4196
 125  118.4287
 126  36.59272
 127  221.431
 128  87.16521
 129  182.0837
 130  322.3477
 131  311.9229
 132  165.7901
 133  181.8771
 134  235.0782
 135  252.7262
 136  279.3521
 137  281.1254
 138  264.2016
 139  301.6131
 140  277.1978
 141  159.1548
 142  134.5153
 143  166.9794
 144  118.0827
 145  211.1833
 146  281.3989
 147  300.2593
 148  245.6644
 149  302.9547
 150  343.0165
 151  367.5955
 152  347.6559
 153  171.0965
 154  157.9168
 155  93.37408
 156  55.34643
 157  231.6382
 158  188.769
 159  205.436
 160  170.4787
 161  181.1418
 162  215.6848
 163  231.0349
 164  138.7016
 165  124.0815
 166  116.0811
 167  208.6804
 168  333.9276
 169  202.6028
 170  142.3722
 171  184.318
 172  117.7444
 173  255.8672
 174  205.3087
 175  290.3714
 176  246.1013
 177  126.0243
 178  138.6886
 179  170.988
 180  302.3655
 181  331.3788
 182  194.7333
 183  182.2881
 184  255.2329
 185  442.831
 186  349.0244
 187  193.033
 188  231.4857
 189  196.6125
 190  46.68964
 191  140.8237
 192  199.7993
 193  160.7937
 194  216.94
 195  173.2209
 196  229.9572
 197  289.2994
 198  301.4639
 199  164.4677
 200  141.3995
 201  151.8497
 202  184.6621
 203  311.5973
 204  284.5617
 205  197.3851
 206  104.1251
 207  193.7608
 208  386.9029
 209  347.3118
 210  210.1332
 211  371.815
 212  119.9858
 213  149.7482
 214  304.8192
 215  247.7083
 216  200.2431
 217  161.0462
 218  315.8
 219  403.7282
 220  277.989
 221  256.3945
 222  310.3797
 223  271.5002
 224  355.6838
 225  198.1031
 226  252.4775
 227  192.1428
 228  199.4367
 229  321.7273
 230  309.9417
 231  250.5448
 232  404.3013
 233  290.633
 234  265.9873
 235  277.5518
 236  333.1014
 237  154.2711
 238  186.5051
 239  215.1729
 240  307.08
 241  318.3609
 242  146.3344
 243  210.1074
 244  319.355
 245  146.1172
 246  137.0995
 247  119.1922
 248  219.6256
 249  244.0074
 250  89.64722
 251  177.7904
 252  262.4788
 253  249.2046
 254  269.5848
 255  240.4836
 256  177.8004
 257  194.9541
 258  204.0219
 259  174.2962
 260  266.5526
 261  87.5049
 262  79.32812
 263  156.5288
 264  252.8331
 265  237.4758
 266  188.5817
 267  191.3463
 268  358.0724
 269  232.542
 270  281.4585
 271  220.2806
 272  187.5339
 273  123.6208
 274  234.1793
 275  262.2743
 276  244.1644
 277  155.9248
 278  221.3388
 279  293.8707
 280  211.9164
 281  121.0443
 282  165.6121
 283  165.8873
 284  198.4282
 285  121.5133
 286  130.2755
 287  270.6107
 288  195.6954
 289  63.73508
 290  46.96552
 291  143.025
 292  203.0175
 293  213.3629
 294  264.8322
 295  244.1092
 296  238.7296
 297  323.2129
 298  162.5463
 299  210.8817
 300  247.864
 301  279.1826
 302  387.2923
 303  98.08418
 304  30.7734
 305  140.7935
 306  183.0369
 307  385.3263
 308  204.5241
 309  31.62775
 310  230.1793
 311  303.6077
 312  235.9654
 313  335.3177
 314  361.8824
 315  271.8375
 316  292.3792
 317  371.4794
 318  225.5442
 319  184.4461
 320  286.4244
 321  296.2572
 322  206.2236
 323  117.8522
 324  65.18499
 325  105.7227
 326  271.9227
 327  288.7296
 328  271.8076
 329  159.1194
 330  147.9023
 331  274.7466
 332  328.028
 333  366.7285
 334  284.6679
 335  246.0191
 336  180.573
 337  139.0883
 338  234.4538
 339  279.5328
 340  353.2397
 341  235.9712
 342  209.9438
 343  199.6671
 344  137.4667
 345  192.5445
 346  179.3107
 347  142.604
 348  198.5775
 349  262.4108
 350  208.7938
 351  249.8708
 352  309.8247
 353  208.4333
 354  224.9444
 355  151.2489
 356  222.0521
 357  197.2688
 358  243.9408
 359  240.8232
 360  281.3875
 361  228.191
 362  304.7307
 363  221.8564
 364  255.5697
 365  454.1843
 366  395.8075
 367  216.319
 368  108.5624
 369  294.3286
 370  306.255
 371  300.4371
 372  283.7067
 373  276.1072
 374  268.9056
 375  337.3169
 376  405.073
 377  357.0855
 378  280.88
 379  277.8149
 380  214.3223
 381  180.3033
 382  242.7627
 383  194.3342
 384  247.8926
 385  273.5514
 386  332.7211
 387  391.621
 388  220.8057
 389  240.9053
 390  236.2314
 391  221.8263
 392  170.6113
 393  197.8841
 394  131.8213
 395  198.2872
 396  230.7321
 397  234.6781
 398  172.0192
 399  288.0166
 400  274.0082
 401  310.3045
 402  285.2439
 403  137.6776
 404  115.5475
 405  202.7369
 406  304.4279
 407  243.3734
 408  257.0678
 409  189.9417
 410  281.2458
 411  275.1686
 412  191.3344
 413  211.581
 414  237.2855
 415  224.5002
 416  218.5392
 417  226.9611
 418  175.1969
 419  135.1775
 420  281.6255
 421  272.4444
 422  278.3533
 423  348.9541
 424  190.4058
 425  82.79735
 426  164.5358
 427  214.2457
 428  164.3356
 429  97.41922
 430  233.6194
 431  111.2377
 432  222.9259
 433  153.1816
 434  286.077
 435  216.8675
 436  234.8288
 437  242.0353
 438  156.6761
 439  181.8062
 440  276.0149
 441  174.2205
 442  165.271
 443  225.8076
 444  324.8185
 445  181.3163
 446  273.2795
 447  203.9312
 448  112.2972
 449  245.9224
 450  256.0954
 451  253.5446
 452  231.8085
 453  215.6499
 454  166.1077
 455  289.4996
 456  338.8155
 457  109.738
 458  -40.35542
 459  172.24
 460  260.7789
 461  306.4154
 462  266.2912
 463  268.7624
 464  336.5228
 465  278.8589
 466  273.9393
 467  157.0274
 468  189.3005
 469  256.2004
 470  264.3657
 471  274.6465
 472  304.0668
 473  298.9938
 474  352.4543
 475  276.8137
 476  167.5668
 477  58.32669
 478  231.4003
 479  318.5285
 480  100.2823
 481  178.5773
 482  209.5217
 483  347.7158
 484  379.4389
 485  263.619
 486  295.2503
 487  243.9089
 488  358.3861
 489  304.1518
 490  258.5859
 491  202.5821
 492  285.8559
 493  422.9625
 494  502.0905
 495  416.0627
 496  424.8474
 497  522.2695
 498  361.5118
 499  303.9275
 500  227.8772
 501  115.8855
 502  96.43761
 503  296.1633
 504  331.2525
 505  453.3259
 506  385.3305
 507  387.878
 508  360.9069
 509  428.541
 510  590.4109
 511  856.2944
