# Input file       =  1205310301.106354_cleaned.dat
# Candidate        =  PSR_0332+5434
# Telescope        =  AR
# Epoch_topo       =  58194.350498916137
# Epoch_bary       =  N/A
# T_sample         =  0.002
# Data Folded      =  7274496
# Data Avg         =  0.112759702494419
# Data StdDev      =  1.00015776809696 
# Profile Bins     =  512
# Profile Avg      =  1602.14123904973 
# Profile StdDev   =  119.216120939625 
# Reduced chi-sqr  =  1.743
# Prob(Noise)      <  5.62e-23   (~9.8 sigma)
# P_topo (ms)      =  714.576757303511  +/- 5.91e-05
# P'_topo (s/s)    =  -0                +/- 3.15e-11
# P''_topo (s/s^2) =  0                 +/- 1.4e-14
# P_bary (ms)      =  N/A
# P'_bary (s/s)    =  N/A
# P''_bary (s/s^2) =  N/A
# P_orb (s)        =  N/A
# asin(i)/c (s)    =  N/A
# eccentricity     =  N/A
# w (rad)          =  N/A
# T_peri           =  N/A
######################################################
   0  2328.767
   1  2274.877
   2  2048.69
   3  1807.351
   4  1675.999
   5  1532.641
   6  1566.223
   7  1638.199
   8  1677.791
   9  1631.311
  10  1647.403
  11  1514.053
  12  1531.009
  13  1574.778
  14  1631.304
  15  1669.423
  16  1704.619
  17  1660.343
  18  1550.331
  19  1551.09
  20  1560.012
  21  1658.464
  22  1652.225
  23  1678.582
  24  1765.925
  25  1775.274
  26  1695.962
  27  1474.457
  28  1536.965
  29  1545.858
  30  1565.639
  31  1652.032
  32  1672.26
  33  1620.441
  34  1567.906
  35  1516.019
  36  1401.591
  37  1524.057
  38  1651.765
  39  1587.581
  40  1659.748
  41  1614.797
  42  1542.185
  43  1548.794
  44  1518.448
  45  1523.658
  46  1586.109
  47  1655.048
  48  1740.811
  49  1746.042
  50  1683.38
  51  1587.64
  52  1510.842
  53  1484.72
  54  1550.428
  55  1679.059
  56  1714.936
  57  1689.518
  58  1564.622
  59  1562.05
  60  1650.866
  61  1571.826
  62  1610.126
  63  1591.421
  64  1564.464
  65  1627.043
  66  1702.217
  67  1715.483
  68  1709.832
  69  1640.211
  70  1642.162
  71  1653.343
  72  1571.553
  73  1568.026
  74  1548.512
  75  1520.726
  76  1580.312
  77  1469.171
  78  1513.71
  79  1657.645
  80  1635.837
  81  1726.222
  82  1680.751
  83  1709.181
  84  1649.001
  85  1550.076
  86  1484.151
  87  1524.26
  88  1641.352
  89  1705.798
  90  1718.391
  91  1570.45
  92  1615.949
  93  1739.401
  94  1606.267
  95  1551.644
  96  1612.013
  97  1651.985
  98  1802.487
  99  1767.116
 100  1633.259
 101  1581.951
 102  1523.796
 103  1421.77
 104  1521.363
 105  1569.096
 106  1511.549
 107  1575.217
 108  1630.753
 109  1656.174
 110  1634.371
 111  1652.711
 112  1725.973
 113  1579.244
 114  1571.21
 115  1660.79
 116  1661.381
 117  1709.915
 118  1557.144
 119  1550.464
 120  1623.484
 121  1564.906
 122  1686.789
 123  1560.436
 124  1522.558
 125  1546.144
 126  1624.057
 127  1585.164
 128  1638.091
 129  1700.767
 130  1747.5
 131  1717.764
 132  1727.054
 133  1786.753
 134  1699.704
 135  1715.212
 136  1767.399
 137  1668.216
 138  1616.787
 139  1551.885
 140  1523.417
 141  1548.946
 142  1629.516
 143  1597.39
 144  1622.714
 145  1635.553
 146  1551.014
 147  1568.343
 148  1645.76
 149  1708.566
 150  1563.053
 151  1548.835
 152  1612.991
 153  1602.106
 154  1670.31
 155  1678.795
 156  1694.543
 157  1632.821
 158  1622.66
 159  1516.097
 160  1519.905
 161  1534.975
 162  1586.236
 163  1564.872
 164  1683.944
 165  1666.811
 166  1701.41
 167  1653.411
 168  1580.851
 169  1584.491
 170  1526.36
 171  1439.665
 172  1583.926
 173  1706.107
 174  1607.23
 175  1585.699
 176  1470.261
 177  1496.501
 178  1583.671
 179  1703.976
 180  1666.43
 181  1665.33
 182  1623.897
 183  1531.161
 184  1495.399
 185  1510.959
 186  1548.077
 187  1567.263
 188  1656.822
 189  1629.19
 190  1575.395
 191  1670.016
 192  1517.874
 193  1456.434
 194  1521.747
 195  1589.081
 196  1593.605
 197  1534.318
 198  1465.38
 199  1496.031
 200  1513.025
 201  1440.866
 202  1525.41
 203  1572.294
 204  1481.987
 205  1425.13
 206  1480.729
 207  1528.001
 208  1539.485
 209  1515.219
 210  1502.269
 211  1594.913
 212  1610.504
 213  1547.067
 214  1645.555
 215  1725.499
 216  1589.605
 217  1564.589
 218  1549.712
 219  1591.967
 220  1550.722
 221  1527.898
 222  1583.059
 223  1570.2
 224  1530.727
 225  1420.418
 226  1459.966
 227  1541.645
 228  1546.007
 229  1532.742
 230  1574.485
 231  1561.769
 232  1525.61
 233  1530.712
 234  1369.638
 235  1386.924
 236  1457.461
 237  1470.842
 238  1543.87
 239  1497.351
 240  1533.002
 241  1472.566
 242  1452.071
 243  1458.959
 244  1513.23
 245  1604.926
 246  1561.961
 247  1586.2
 248  1506.218
 249  1468.802
 250  1494.758
 251  1410.718
 252  1369.424
 253  1510.601
 254  1565.78
 255  1441.801
 256  1469.49
 257  1565.675
 258  1520.39
 259  1516.027
 260  1609.445
 261  1600.73
 262  1583.597
 263  1641.911
 264  1626.171
 265  1605.787
 266  1513.986
 267  1614.055
 268  1530.71
 269  1422.458
 270  1498.935
 271  1505.001
 272  1484.454
 273  1513.289
 274  1497.432
 275  1402.95
 276  1471.638
 277  1532.255
 278  1477.146
 279  1470.67
 280  1559.407
 281  1512.348
 282  1515.007
 283  1481.213
 284  1450.118
 285  1407.194
 286  1402.769
 287  1549.638
 288  1494.119
 289  1491.246
 290  1480.661
 291  1483.353
 292  1399.259
 293  1489.006
 294  1653.723
 295  1562.464
 296  1558.404
 297  1437.561
 298  1475.995
 299  1440.318
 300  1369.334
 301  1320.441
 302  1385.057
 303  1474.335
 304  1468.311
 305  1420.311
 306  1446.286
 307  1481.74
 308  1389.992
 309  1402.452
 310  1563.577
 311  1576.569
 312  1563.25
 313  1582.549
 314  1586.782
 315  1433.711
 316  1361.178
 317  1485.947
 318  1498.944
 319  1538.323
 320  1555.928
 321  1559.095
 322  1518.874
 323  1450.137
 324  1321.529
 325  1347.825
 326  1376.436
 327  1459.265
 328  1465.02
 329  1488.413
 330  1594.968
 331  1560.73
 332  1502.195
 333  1313.033
 334  1421.822
 335  1588.805
 336  1624.356
 337  1614.685
 338  1709.071
 339  1619.968
 340  1461.945
 341  1433.024
 342  1539.805
 343  1578.33
 344  1584.712
 345  1577.159
 346  1587.582
 347  1645.568
 348  1523.89
 349  1567.154
 350  1543.143
 351  1490.377
 352  1485.825
 353  1576.487
 354  1740.027
 355  1729.334
 356  1659.149
 357  1650.128
 358  1622.292
 359  1574.869
 360  1609.796
 361  1595.988
 362  1664.39
 363  1740.235
 364  1671.788
 365  1668.31
 366  1554.36
 367  1567.765
 368  1670.028
 369  1599.929
 370  1644.619
 371  1645.352
 372  1652.35
 373  1697.895
 374  1637.321
 375  1647.414
 376  1650.314
 377  1638.509
 378  1753.283
 379  1785.944
 380  1649.796
 381  1633.599
 382  1777.461
 383  1700.946
 384  1680.455
 385  1748.284
 386  1721.93
 387  1801.565
 388  1907.313
 389  1810.38
 390  1741.141
 391  1724.938
 392  1614.373
 393  1759.414
 394  1696.132
 395  1796.775
 396  1877.039
 397  1751.694
 398  1641.96
 399  1686.268
 400  1705.427
 401  1721.486
 402  1632.412
 403  1769.362
 404  1788.309
 405  1693.895
 406  1744.815
 407  1599.413
 408  1533.764
 409  1565.904
 410  1638.024
 411  1708.414
 412  1700.651
 413  1781.842
 414  1709.415
 415  1681.125
 416  1578.887
 417  1573.269
 418  1589.838
 419  1651.152
 420  1738.587
 421  1668.492
 422  1671.895
 423  1591.231
 424  1447.526
 425  1610.769
 426  1630.952
 427  1645.616
 428  1594.676
 429  1657.112
 430  1615.367
 431  1518.131
 432  1541.518
 433  1500.986
 434  1509.612
 435  1571.689
 436  1660.716
 437  1682.248
 438  1637.911
 439  1618.466
 440  1601.368
 441  1581.285
 442  1547.142
 443  1701.191
 444  1641.834
 445  1646.148
 446  1612.932
 447  1618.972
 448  1682.954
 449  1676.828
 450  1605.292
 451  1559.902
 452  1607.625
 453  1561.196
 454  1596.263
 455  1630.141
 456  1525.256
 457  1510.224
 458  1642.323
 459  1743.568
 460  1630.576
 461  1593.829
 462  1615.305
 463  1603.302
 464  1677.845
 465  1618.238
 466  1574.823
 467  1644.694
 468  1645.92
 469  1741.742
 470  1761.56
 471  1680.565
 472  1586.704
 473  1568.615
 474  1578.224
 475  1611.449
 476  1661.547
 477  1665.333
 478  1718.582
 479  1716.805
 480  1681.346
 481  1608.983
 482  1554.561
 483  1614.77
 484  1706.873
 485  1759.631
 486  1672.777
 487  1630.265
 488  1709.819
 489  1758.633
 490  1794.825
 491  1700.143
 492  1702.863
 493  1730.97
 494  1674.88
 495  1808.185
 496  1809.064
 497  1773.147
 498  1671.384
 499  1656.108
 500  1746.771
 501  1704.102
 502  1707.188
 503  1776.821
 504  1708.803
 505  1612.464
 506  1656.725
 507  1660.102
 508  1715.162
 509  1872.846
 510  2060.389
 511  2182.736
