# Input file       =  1208943319.116623_cleaned.dat
# Candidate        =  PSR_0332+5434
# Telescope        =  AR
# Epoch_topo       =  58236.399318479431
# Epoch_bary       =  N/A
# T_sample         =  0.002
# Data Folded      =  7340032
# Data Avg         =  0.0444653547683859
# Data StdDev      =  1.00015680132244 
# Profile Bins     =  512
# Profile Avg      =  637.458318144227 
# Profile StdDev   =  119.751810675209 
# Reduced chi-sqr  =  1.169
# Prob(Noise)      <  0.00494   (~2.6 sigma)
# P_topo (ms)      =  714.549042611273  +/- 0.000399
# P'_topo (s/s)    =  -0                +/- 2.11e-10
# P''_topo (s/s^2) =  0                 +/- 9.3e-14
# P_bary (ms)      =  N/A
# P'_bary (s/s)    =  N/A
# P''_bary (s/s^2) =  N/A
# P_orb (s)        =  N/A
# asin(i)/c (s)    =  N/A
# eccentricity     =  N/A
# w (rad)          =  N/A
# T_peri           =  N/A
######################################################
   0  1189.81
   1  1179.94
   2  1034.053
   3  836.0151
   4  678.5298
   5  655.9653
   6  627.4349
   7  601.129
   8  662.2013
   9  727.8829
  10  658.9204
  11  589.1661
  12  582.0279
  13  608.1246
  14  620.7594
  15  651.8048
  16  732.7686
  17  682.4793
  18  552.9268
  19  556.2352
  20  552.4589
  21  578.7986
  22  676.539
  23  646.655
  24  651.9492
  25  543.9942
  26  637.2118
  27  644.9813
  28  557.408
  29  649.5687
  30  673.8725
  31  615.354
  32  689.7144
  33  663.9938
  34  666.3811
  35  664.8594
  36  632.4054
  37  794.1464
  38  755.4485
  39  699.1926
  40  687.9578
  41  652.2915
  42  749.4667
  43  719.5962
  44  721.0903
  45  644.2075
  46  693.2688
  47  695.1458
  48  665.3981
  49  601.8774
  50  645.2188
  51  664.1097
  52  615.7643
  53  631.5295
  54  641.2513
  55  671.3187
  56  712.76
  57  710.0304
  58  790.6786
  59  709.3799
  60  722.6805
  61  751.2773
  62  764.883
  63  682.5875
  64  718.2018
  65  739.8953
  66  773.0776
  67  770.2111
  68  831.3891
  69  766.1555
  70  724.15
  71  731.8691
  72  736.342
  73  671.0112
  74  770.1119
  75  767.4465
  76  775.5538
  77  789.1331
  78  724.2379
  79  750.272
  80  714.1603
  81  625.6371
  82  580.1871
  83  513.4296
  84  568.139
  85  624.8582
  86  672.8735
  87  627.1213
  88  600.4626
  89  645.4648
  90  677.9362
  91  588.0457
  92  599.9079
  93  711.7673
  94  756.0871
  95  724.9986
  96  727.2803
  97  717.4423
  98  654.2853
  99  629.3312
 100  651.4395
 101  547.4742
 102  492.0202
 103  567.8853
 104  644.5732
 105  565.1211
 106  498.4613
 107  566.5224
 108  629.9828
 109  502.2818
 110  394.2936
 111  506.7609
 112  561.6023
 113  594.6462
 114  562.3915
 115  588.5621
 116  615.6285
 117  567.822
 118  483.2942
 119  501.6881
 120  551.351
 121  588.8047
 122  579.5704
 123  612.7061
 124  623.7397
 125  575.2313
 126  589.4119
 127  695.632
 128  673.6053
 129  672.5477
 130  701.7195
 131  617.0934
 132  651.9017
 133  677.1462
 134  708.4852
 135  725.0544
 136  705.678
 137  706.4666
 138  713.7815
 139  786.318
 140  814.7805
 141  716.0868
 142  803.0438
 143  655.6248
 144  618.7711
 145  686.6047
 146  661.3892
 147  593.8922
 148  679.8483
 149  753.8752
 150  596.436
 151  593.4036
 152  642.4436
 153  629.8915
 154  668.6808
 155  654.8132
 156  629.6871
 157  614.9918
 158  569.0749
 159  497.8228
 160  516.0864
 161  566.1631
 162  490.281
 163  479.8885
 164  533.0638
 165  529.6133
 166  493.5972
 167  484.596
 168  500.6133
 169  540.6635
 170  481.7049
 171  481.4044
 172  554.7247
 173  550.4014
 174  553.7362
 175  557.7565
 176  475.1776
 177  470.8198
 178  538.5819
 179  570.7294
 180  412.637
 181  454.7012
 182  412.9661
 183  361.5437
 184  376.9466
 185  391.723
 186  446.0023
 187  513.1989
 188  558.6665
 189  570.7689
 190  584.3573
 191  522.0051
 192  561.863
 193  518.7375
 194  540.5515
 195  526.2939
 196  499.6314
 197  499.5934
 198  484.9022
 199  501.4559
 200  500.0683
 201  598.2193
 202  574.2826
 203  591.3022
 204  594.0651
 205  584.3449
 206  567.6476
 207  515.316
 208  584.9045
 209  606.8165
 210  576.6076
 211  639.0825
 212  622.5357
 213  625.5974
 214  583.8201
 215  596.3102
 216  634.58
 217  631.2255
 218  687.568
 219  709.9263
 220  690.551
 221  687.5357
 222  728.6984
 223  665.1041
 224  701.7744
 225  743.7563
 226  720.7594
 227  611.2352
 228  636.5359
 229  728.5152
 230  743.9772
 231  793.9412
 232  794.4945
 233  686.7987
 234  680.7795
 235  713.3396
 236  633.9302
 237  612.2665
 238  621.0876
 239  537.4495
 240  678.3404
 241  623.7346
 242  534.7436
 243  478.6727
 244  550.9868
 245  608.2386
 246  577.1143
 247  632.9467
 248  648.4265
 249  548.7633
 250  552.3585
 251  647.3936
 252  601.2537
 253  625.2908
 254  645.0959
 255  680.4327
 256  653.2347
 257  661.7798
 258  654.0856
 259  585.1213
 260  623.5826
 261  508.29
 262  558.7585
 263  615.3872
 264  587.1451
 265  469.3473
 266  537.3229
 267  649.0645
 268  636.1688
 269  616.6868
 270  584.4475
 271  562.6717
 272  586.2412
 273  600.978
 274  575.4116
 275  649.9702
 276  591.8925
 277  620.8536
 278  651.9901
 279  695.571
 280  595.5609
 281  612.9222
 282  627.5474
 283  697.035
 284  633.0508
 285  592.3795
 286  615.4119
 287  552.272
 288  658.2964
 289  732.823
 290  606.7969
 291  484.8562
 292  525.0035
 293  562.793
 294  527.5797
 295  532.8029
 296  576.1101
 297  544.9813
 298  499.1689
 299  571.9219
 300  563.6042
 301  543.2055
 302  546.2693
 303  603.5142
 304  621.7759
 305  610.2292
 306  568.7098
 307  574.1036
 308  608.4973
 309  664.3247
 310  600.9374
 311  594.1556
 312  579.1578
 313  556.8921
 314  583.3161
 315  509.2032
 316  509.6358
 317  631.1303
 318  608.3688
 319  538.6085
 320  580.0084
 321  649.4079
 322  613.2926
 323  429.2148
 324  488.6616
 325  507.9064
 326  538.2548
 327  667.5402
 328  613.0889
 329  653.1254
 330  652.9435
 331  608.245
 332  639.2602
 333  564.1616
 334  674.8965
 335  668.0568
 336  642.2274
 337  633.8658
 338  583.7405
 339  658.9308
 340  693.5253
 341  670.5757
 342  696.7456
 343  644.4691
 344  636.0177
 345  650.0383
 346  645.9194
 347  680.0494
 348  653.8882
 349  682.8192
 350  671.5212
 351  655.1106
 352  707.6276
 353  638.8164
 354  699.7432
 355  792.6879
 356  760.3499
 357  677.6388
 358  637.778
 359  663.9019
 360  742.1158
 361  680.242
 362  679.4806
 363  665.9154
 364  663.7623
 365  661.3813
 366  600.1672
 367  746.4651
 368  697.2373
 369  665.2535
 370  687.2848
 371  688.0144
 372  754.2484
 373  749.6031
 374  690.5067
 375  713.398
 376  771.6767
 377  695.1888
 378  672.0073
 379  622.5903
 380  548.9353
 381  532.2552
 382  557.4335
 383  637.4754
 384  654.3658
 385  675.9309
 386  600.407
 387  601.9055
 388  686.7396
 389  725.4115
 390  698.8666
 391  763.7809
 392  744.2682
 393  715.2005
 394  757.4484
 395  679.9272
 396  616.5089
 397  683.0396
 398  700.9058
 399  657.1931
 400  686.3812
 401  660.4412
 402  614.5746
 403  654.4294
 404  685.7278
 405  589.6085
 406  685.7589
 407  742.1233
 408  813.4961
 409  736.6028
 410  704.7743
 411  750.1858
 412  689.2317
 413  717.1932
 414  725.9857
 415  695.0406
 416  718.9574
 417  721.0453
 418  748.0891
 419  749.2368
 420  749.6776
 421  650.2985
 422  638.8442
 423  630.5753
 424  729.347
 425  652.1706
 426  654.7624
 427  657.2189
 428  605.8246
 429  573.4869
 430  590.4357
 431  677.6385
 432  732.8642
 433  742.8409
 434  678.1667
 435  747.7183
 436  724.2328
 437  726.7205
 438  786.9833
 439  692.9437
 440  548.1512
 441  565.1068
 442  653.4379
 443  679.8287
 444  631.2538
 445  688.3537
 446  580.4973
 447  528.2478
 448  582.9058
 449  538.0504
 450  508.8998
 451  544.775
 452  636.8873
 453  602.023
 454  546.6165
 455  548.0236
 456  556.2405
 457  561.7805
 458  514.4271
 459  512.1398
 460  524.7711
 461  546.4547
 462  559.2076
 463  543.949
 464  578.186
 465  583.3013
 466  598.5479
 467  617.033
 468  684.1979
 469  625.247
 470  651.714
 471  622.7318
 472  557.7271
 473  604.7847
 474  605.3683
 475  658.9193
 476  581.3865
 477  551.1899
 478  599.2529
 479  578.9482
 480  668.6757
 481  674.8066
 482  708.3413
 483  654.0901
 484  686.9352
 485  615.0065
 486  642.5705
 487  728.1741
 488  721.3102
 489  733.1371
 490  660.5875
 491  662.1448
 492  666.042
 493  637.8264
 494  700.2429
 495  738.8086
 496  701.178
 497  636.6085
 498  612.6198
 499  685.1826
 500  731.0478
 501  661.2983
 502  652.4725
 503  626.6727
 504  719.3777
 505  727.4448
 506  774.989
 507  736.6178
 508  810.1762
 509  895.076
 510  990.6467
 511  1090.906
