# Input file       =  1210048853.110351_cleaned.dat
# Candidate        =  PSR_0332+5434
# Telescope        =  AR
# Epoch_topo       =  58249.194850814252
# Epoch_bary       =  N/A
# T_sample         =  0.002
# Data Folded      =  7208960
# Data Avg         =  0.0650359557938261
# Data StdDev      =  1.00009245347714 
# Profile Bins     =  512
# Profile Avg      =  915.642550842664 
# Profile StdDev   =  118.670146246928 
# Reduced chi-sqr  =  2.507
# Prob(Noise)      <  9.85e-68   (~17.4 sigma)
# P_topo (ms)      =  714.537254629658  +/- 9.24e-05
# P'_topo (s/s)    =  -0                +/- 4.96e-11
# P''_topo (s/s^2) =  0                 +/- 2.23e-14
# P_bary (ms)      =  N/A
# P'_bary (s/s)    =  N/A
# P''_bary (s/s^2) =  N/A
# P_orb (s)        =  N/A
# asin(i)/c (s)    =  N/A
# eccentricity     =  N/A
# w (rad)          =  N/A
# T_peri           =  N/A
######################################################
   0  1778.532
   1  1778.311
   2  1619.296
   3  1391.52
   4  1121.455
   5  872.6676
   6  853.3298
   7  875.4838
   8  895.0531
   9  1039.963
  10  1107.407
  11  1029.741
  12  992.3703
  13  1074.951
  14  1000.057
  15  1009.557
  16  1090.358
  17  1078.782
  18  993.6945
  19  968.4759
  20  870.6115
  21  841.2092
  22  847.2642
  23  888.4982
  24  849.7205
  25  944.7311
  26  1060.883
  27  1001.848
  28  944.149
  29  937.8972
  30  890.5104
  31  804.4277
  32  857.4058
  33  817.3547
  34  816.6055
  35  947.5959
  36  1010.24
  37  1047.948
  38  990.7118
  39  907.0825
  40  794.5094
  41  755.2015
  42  804.6691
  43  934.0422
  44  1064.12
  45  1042.671
  46  953.3484
  47  779.9575
  48  734.0656
  49  715.1943
  50  782.8275
  51  878.9285
  52  935.8712
  53  858.6803
  54  742.6987
  55  881.8388
  56  845.2
  57  844.851
  58  881.1213
  59  1012.185
  60  1015.226
  61  831.4895
  62  909.5966
  63  971.6697
  64  847.8372
  65  821.3621
  66  819.2028
  67  823.2286
  68  874.7407
  69  995.9057
  70  1011.129
  71  997.7025
  72  975.2475
  73  838.8707
  74  811.9196
  75  827.7303
  76  969.9529
  77  1033.629
  78  906.4719
  79  920.1902
  80  864.7121
  81  839.7455
  82  873.0791
  83  913.0768
  84  883.791
  85  852.5063
  86  931.3897
  87  954.0544
  88  934.9626
  89  873.7712
  90  893.1658
  91  993.3793
  92  947.1489
  93  924.2534
  94  939.9257
  95  946.243
  96  865.1014
  97  853.6576
  98  799.3527
  99  794.7213
 100  827.9589
 101  893.5868
 102  900.8695
 103  892.4469
 104  826.3507
 105  949.0698
 106  931.9771
 107  866.1516
 108  829.7596
 109  778.8671
 110  790.0579
 111  764.3865
 112  832.9894
 113  835.1318
 114  863.1636
 115  823.7606
 116  842.8466
 117  852.4289
 118  922.5073
 119  806.0948
 120  754.5718
 121  882.9007
 122  764.516
 123  759.5158
 124  777.943
 125  829.6732
 126  912.0408
 127  959.5093
 128  917.6027
 129  779.7045
 130  738.1832
 131  797.2914
 132  790.0681
 133  789.03
 134  809.7568
 135  803.5363
 136  742.4944
 137  714.5571
 138  720.8381
 139  673.519
 140  642.1039
 141  677.5179
 142  792.3643
 143  881.5135
 144  865.4371
 145  975.0307
 146  861.8079
 147  735.6814
 148  598.1952
 149  682.5737
 150  799.0234
 151  773.8698
 152  946.9799
 153  889.6493
 154  816.8094
 155  770.4437
 156  725.8332
 157  847.7982
 158  835.8976
 159  811.8703
 160  929.131
 161  1009.811
 162  991.1611
 163  899.267
 164  831.5356
 165  758.938
 166  867.314
 167  857.8806
 168  865.1912
 169  889.5504
 170  891.0831
 171  914.5167
 172  858.0601
 173  748.3662
 174  816.8516
 175  911.4706
 176  814.8873
 177  813.4945
 178  858.1113
 179  800.0472
 180  896.2832
 181  870.8623
 182  811.0789
 183  835.4349
 184  861.1805
 185  854.5135
 186  766.7752
 187  808.761
 188  832.3256
 189  886.701
 190  825.8644
 191  763.1681
 192  878.3607
 193  859.4398
 194  799.1756
 195  767.4178
 196  706.7639
 197  683.0329
 198  859.7358
 199  865.9103
 200  886.9574
 201  901.7639
 202  947.9139
 203  944.714
 204  877.7612
 205  848.6572
 206  788.7585
 207  873.5778
 208  844.6393
 209  852.2871
 210  957.3237
 211  972.8132
 212  874.8188
 213  872.89
 214  946.5063
 215  870.4361
 216  751.2937
 217  976.6016
 218  962.2169
 219  950.452
 220  1072.224
 221  1031.684
 222  876.6107
 223  784.0242
 224  807.6959
 225  918.1152
 226  949.3428
 227  917.3209
 228  831.3663
 229  819.8066
 230  763.3926
 231  703.872
 232  782.2538
 233  771.6393
 234  880.1901
 235  905.587
 236  821.1293
 237  861.0818
 238  865.7736
 239  802.0128
 240  843.8522
 241  982.7862
 242  997.005
 243  938.1086
 244  947.9731
 245  893.1427
 246  865.6264
 247  915.0789
 248  924.5289
 249  873.6427
 250  894.2762
 251  977.4399
 252  865.9077
 253  775.609
 254  791.6224
 255  942.5098
 256  936.1296
 257  860.083
 258  916.655
 259  793.8916
 260  857.2976
 261  901.5143
 262  776.4785
 263  682.4276
 264  732.4518
 265  864.1379
 266  790.4064
 267  865.4093
 268  869.8974
 269  899.8896
 270  870.1822
 271  858.1613
 272  795.1858
 273  700.6663
 274  763.5825
 275  935.0212
 276  856.058
 277  758.9985
 278  634.4246
 279  632.0161
 280  709.3645
 281  853.2429
 282  827.3793
 283  894.1086
 284  871.5383
 285  826.4269
 286  777.6763
 287  859.762
 288  797.6002
 289  834.4511
 290  794.4357
 291  845.9841
 292  798.8832
 293  792.9033
 294  788.5582
 295  828.1367
 296  806.7955
 297  744.173
 298  761.4931
 299  750.3669
 300  716.4587
 301  800.7886
 302  836.8375
 303  853.4012
 304  809.3868
 305  840.7966
 306  857.514
 307  830.5544
 308  909.057
 309  841.4528
 310  835.3083
 311  922.0136
 312  870.8004
 313  761.6454
 314  763.6548
 315  758.3534
 316  819.0246
 317  802.3353
 318  982.8704
 319  772.4045
 320  735.0114
 321  700.7451
 322  722.2917
 323  820.1349
 324  842.3091
 325  781.8014
 326  758.2657
 327  805.0405
 328  735.5168
 329  761.3427
 330  749.1603
 331  776.8673
 332  861.2687
 333  985.7646
 334  924.0709
 335  825.4193
 336  878.6714
 337  988.9695
 338  937.139
 339  850.9561
 340  861.0228
 341  901.9344
 342  926.0548
 343  863.0602
 344  824.6739
 345  823.2418
 346  884.3316
 347  881.5913
 348  832.1122
 349  872.6988
 350  1002.972
 351  1008.261
 352  903.0674
 353  908.1406
 354  1019.372
 355  881.9258
 356  920.8707
 357  955.6769
 358  942.1055
 359  921.9056
 360  992.4539
 361  1038.758
 362  953.2043
 363  1045.518
 364  1137.296
 365  995.6875
 366  926.4891
 367  1001.916
 368  993.8505
 369  938.1378
 370  791.8337
 371  840.5493
 372  894.7685
 373  1013.976
 374  983.7432
 375  1026.871
 376  1024.04
 377  911.5304
 378  918.0018
 379  922.8371
 380  1042.241
 381  1086.051
 382  1100.148
 383  1129.112
 384  1121.407
 385  1105.267
 386  1016.903
 387  964.4412
 388  950.3241
 389  961.5262
 390  1063.482
 391  1134.541
 392  1162.235
 393  1053.346
 394  903.9717
 395  938.6861
 396  972.0598
 397  934.1375
 398  1046.103
 399  1080.609
 400  1070.433
 401  957.1437
 402  858.7487
 403  893.4865
 404  823.265
 405  959.9003
 406  1123.181
 407  993.7631
 408  1037.075
 409  1115.833
 410  1130.556
 411  1081.287
 412  978.8257
 413  1054.047
 414  1112.336
 415  1031.286
 416  1089.524
 417  1125.894
 418  1089.357
 419  1027.291
 420  942.9544
 421  1046.44
 422  1057.04
 423  1063.366
 424  1072.766
 425  1099.069
 426  1058.05
 427  937.3969
 428  961.965
 429  1038.772
 430  1045.84
 431  1050.636
 432  1057.302
 433  1018.767
 434  911.951
 435  956.8146
 436  1108.613
 437  1011.118
 438  1020.927
 439  1137.53
 440  1148.377
 441  1002.464
 442  999.9861
 443  966.0535
 444  916.9729
 445  883.5978
 446  931.2407
 447  1046.551
 448  1025.538
 449  968.5714
 450  965.554
 451  980.5499
 452  965.1713
 453  979.9867
 454  1049.532
 455  1081.955
 456  1070.364
 457  995.798
 458  995.3859
 459  974.1066
 460  860.5593
 461  891.1202
 462  903.7073
 463  974.1475
 464  1051.724
 465  1051.492
 466  1075.78
 467  920.3136
 468  903.2835
 469  967.0932
 470  953.5669
 471  1054.039
 472  1050.034
 473  1094.533
 474  1156.133
 475  1093.216
 476  1124.578
 477  923.4766
 478  833.174
 479  936.78
 480  957.9366
 481  1098.211
 482  1127.08
 483  1037.241
 484  947.3682
 485  866.2719
 486  907.095
 487  913.0453
 488  1003.496
 489  1026.907
 490  1070.221
 491  1031.71
 492  1079.568
 493  993.7542
 494  972.4944
 495  1050.297
 496  947.6438
 497  981.3989
 498  1111.563
 499  1179.036
 500  1171.894
 501  1047.58
 502  975.3378
 503  1003.453
 504  1022.01
 505  1008.796
 506  1197.977
 507  1168.592
 508  1252.391
 509  1318.072
 510  1435.554
 511  1690.265
