# Input file       =  1179216699.106159_cleaned.dat
# Candidate        =  PSR_0332+5434
# Telescope        =  AR
# Epoch_topo       =  57892.341644747212
# Epoch_bary       =  N/A
# T_sample         =  0.002
# Data Folded      =  7340032
# Data Avg         =  0.0821876156301839
# Data StdDev      =  2.85322081888357 
# Profile Bins     =  512
# Profile Avg      =  1178.36650796948 
# Profile StdDev   =  341.624792098333 
# Reduced chi-sqr  =  0.941
# Prob(Noise)      <  0.825   (~0.0 sigma)
# P_topo (ms)      =  714.529052719579  +/- 0.000186
# P'_topo (s/s)    =  -0                +/- 9.83e-11
# P''_topo (s/s^2) =  0                 +/- 4.34e-14
# P_bary (ms)      =  N/A
# P'_bary (s/s)    =  N/A
# P''_bary (s/s^2) =  N/A
# P_orb (s)        =  N/A
# asin(i)/c (s)    =  N/A
# eccentricity     =  N/A
# w (rad)          =  N/A
# T_peri           =  N/A
######################################################
   0  1137.634
   1  1066.707
   2  1334.879
   3  971.4266
   4  1214.05
   5  1179.686
   6  1176.318
   7  1248.796
   8  1291.183
   9  1021.834
  10  887.2839
  11  1268.487
  12  1218.907
  13  1365.471
  14  1619.974
  15  1184.347
  16  842.1201
  17  1214.421
  18  1334.233
  19  1239.866
  20  1402.884
  21  1617.047
  22  1343.779
  23  1056.97
  24  1307.638
  25  1216.493
  26  925.914
  27  1009.649
  28  1108.543
  29  988.8289
  30  961.4117
  31  1230.197
  32  1235.22
  33  1178.905
  34  780.8482
  35  812.7515
  36  1049.068
  37  896.6918
  38  908.4168
  39  889.6096
  40  1114.512
  41  1256.617
  42  1214.653
  43  1183.017
  44  767.2463
  45  627.3043
  46  977.2487
  47  839.7449
  48  957.7143
  49  878.1043
  50  1111.073
  51  1358.147
  52  1157.435
  53  983.4392
  54  1124.171
  55  1068.582
  56  1470.403
  57  1163.987
  58  1099.611
  59  1474.245
  60  1439.076
  61  1086.847
  62  1299.907
  63  1181.004
  64  1276.592
  65  1168.2
  66  1376.15
  67  1454.608
  68  1671.989
  69  1396.961
  70  1009.006
  71  789.9714
  72  1235.558
  73  965.145
  74  1060.511
  75  1206.627
  76  1065.419
  77  930.1035
  78  885.8427
  79  1212.43
  80  989.4496
  81  835.4581
  82  974.2565
  83  1138.917
  84  976.6205
  85  929.0823
  86  905.1674
  87  799.6788
  88  1040.527
  89  1259.044
  90  994.9131
  91  871.9859
  92  1062.305
  93  1280.914
  94  1308.705
  95  1427.23
  96  1433.679
  97  1247.753
  98  1266.738
  99  1098.281
 100  1165.341
 101  1325.284
 102  1459.657
 103  1456.588
 104  1171.976
 105  1087.553
 106  1266.881
 107  1221.305
 108  1411.995
 109  1380.314
 110  1324.15
 111  1098.793
 112  1291.228
 113  1176.617
 114  1140.427
 115  965.2502
 116  1120.645
 117  1009.451
 118  1015.304
 119  1185.582
 120  1320.535
 121  1131.026
 122  897.3935
 123  890.9651
 124  979.5901
 125  1225.881
 126  1196.952
 127  1116.098
 128  1275.611
 129  1169.605
 130  925.9647
 131  715.8109
 132  807.9041
 133  944.4078
 134  1172.484
 135  1162.601
 136  1104.609
 137  1078.658
 138  991.5788
 139  951.6388
 140  1145.528
 141  1318.52
 142  1337.292
 143  1373.381
 144  1284.669
 145  992.033
 146  1396.689
 147  1428.682
 148  1142.117
 149  1048.594
 150  1005.959
 151  1023.675
 152  779.4985
 153  924.5808
 154  1099.508
 155  1178.594
 156  1210.143
 157  919.1867
 158  1174.398
 159  1224.58
 160  904.2177
 161  1040.565
 162  1345.718
 163  1318.824
 164  1243.148
 165  1182.654
 166  992.9299
 167  852.6595
 168  748.4382
 169  958.4326
 170  1190.101
 171  1051.315
 172  1057.959
 173  1047.179
 174  1155.24
 175  1522.959
 176  1757.753
 177  1588.156
 178  1336.571
 179  1290.383
 180  1279.624
 181  1413.369
 182  1244.155
 183  1278.155
 184  1156.095
 185  1284.889
 186  1185.687
 187  980.1516
 188  1129.215
 189  932.8385
 190  875.3049
 191  960.8116
 192  1131.42
 193  1273.685
 194  1152.724
 195  1181.751
 196  1253.649
 197  955.4313
 198  1212.501
 199  1384.441
 200  1322.101
 201  1033.837
 202  1178.926
 203  1257.756
 204  1115.387
 205  964.7794
 206  972.9027
 207  1248.703
 208  1055.224
 209  999.5992
 210  1222.496
 211  910.513
 212  924.7773
 213  682.9763
 214  952.9619
 215  1048.116
 216  1103.748
 217  1298.319
 218  1513.188
 219  1166.952
 220  944.2521
 221  948.0388
 222  840.0683
 223  930.1471
 224  831.8271
 225  841.0765
 226  876.6899
 227  924.7823
 228  1446.468
 229  1339.856
 230  1396.329
 231  1273.249
 232  1225.106
 233  1419.016
 234  1465.899
 235  1288.445
 236  1131.638
 237  1321.903
 238  1429.982
 239  1254.083
 240  1426.61
 241  846.1374
 242  1002.454
 243  1543.272
 244  1196.741
 245  1229.951
 246  1061.121
 247  1086.276
 248  923.1609
 249  1005.802
 250  1154.628
 251  931.5717
 252  1358.3
 253  1169.013
 254  1067.719
 255  1309.609
 256  1096.274
 257  1164.559
 258  1351.705
 259  1187.106
 260  1332.538
 261  1219.846
 262  1329.318
 263  993.7401
 264  869.6984
 265  922.6835
 266  876.1549
 267  1412.613
 268  1545.236
 269  1382.965
 270  1126.387
 271  1457.218
 272  1848.636
 273  2111.299
 274  2031.232
 275  2371.829
 276  2766.55
 277  2282.657
 278  1529.272
 279  1094.964
 280  1341.507
 281  1545.344
 282  1459.536
 283  1616.183
 284  1419.97
 285  1487.541
 286  1128.09
 287  913.2749
 288  1133.778
 289  1416.445
 290  1565.276
 291  1300.665
 292  1277.796
 293  1152.286
 294  1176.606
 295  1097.246
 296  1232.384
 297  1055.493
 298  1120.265
 299  1156.691
 300  961.9115
 301  829.1843
 302  966.2816
 303  955.324
 304  996.8915
 305  1065.025
 306  707.0282
 307  932.7481
 308  794.1345
 309  618.7404
 310  893.8541
 311  1162.433
 312  1326.688
 313  1313.601
 314  1066.227
 315  1003.944
 316  1163.809
 317  1375.718
 318  1050.747
 319  1172.541
 320  1217.033
 321  1318.645
 322  1553.259
 323  1385.478
 324  1238.892
 325  1026.216
 326  1229.303
 327  1248.104
 328  1262.357
 329  1367.601
 330  1075.452
 331  1194.383
 332  1203.481
 333  1381.848
 334  1579.646
 335  1637.395
 336  1286.108
 337  1169.941
 338  1196.937
 339  1335.012
 340  1386.79
 341  1376.582
 342  1122.603
 343  1334.21
 344  1164.715
 345  1066.321
 346  1034.335
 347  700.5225
 348  954.0791
 349  1124.62
 350  1284.78
 351  1058.242
 352  1153.403
 353  1164.477
 354  1074.993
 355  959.8491
 356  1326.937
 357  1393.667
 358  1214.951
 359  1215.877
 360  1070.987
 361  1215.47
 362  1240.759
 363  1478.014
 364  1795.098
 365  1468.555
 366  1550.396
 367  1280.199
 368  1136.841
 369  1283.735
 370  1387.886
 371  1392.294
 372  1256.023
 373  1352.405
 374  1171.886
 375  1234.422
 376  987.9022
 377  1222.825
 378  1258.976
 379  1099.776
 380  1093.311
 381  1115.97
 382  1069.959
 383  852.5477
 384  769.4975
 385  890.2397
 386  993.2773
 387  1153.538
 388  1044.743
 389  1079.684
 390  758.9554
 391  618.6678
 392  882.9499
 393  1133.698
 394  1259.044
 395  992.6265
 396  1098.139
 397  915.9099
 398  1002.212
 399  1164.941
 400  1233.549
 401  1183.515
 402  1310.244
 403  1081.108
 404  881.1318
 405  719.7359
 406  927.3591
 407  1265.218
 408  1292.949
 409  1356.382
 410  1187.955
 411  941.0784
 412  1178.015
 413  1514.627
 414  1191.408
 415  1014.69
 416  944.072
 417  1061.348
 418  1099.854
 419  1024.24
 420  1040.733
 421  1300.057
 422  1201.491
 423  1179.466
 424  977.6118
 425  1216.907
 426  1419.66
 427  1236.75
 428  1263.814
 429  1190.158
 430  1543.7
 431  1737.042
 432  1469.199
 433  1460.167
 434  1600.411
 435  1757.758
 436  1549.264
 437  1548.518
 438  1652.539
 439  1416.21
 440  1285.918
 441  1409.702
 442  1294.147
 443  1558.912
 444  1489.591
 445  1256.356
 446  1005.161
 447  1121.581
 448  1208.103
 449  1282.134
 450  1394.998
 451  1027.283
 452  1097.106
 453  921.7564
 454  735.8096
 455  905.4876
 456  1106.718
 457  881.1875
 458  987.134
 459  1182.433
 460  1461.203
 461  955.5366
 462  902.3382
 463  1149.318
 464  1613.875
 465  1320.882
 466  921.1359
 467  1190.803
 468  1133.282
 469  1073.952
 470  924.7398
 471  924.8476
 472  1102.014
 473  996.7102
 474  941.663
 475  1121.198
 476  1338
 477  1269.536
 478  1279.305
 479  1379.303
 480  1237.463
 481  1470.273
 482  959.8267
 483  1030.43
 484  1111.863
 485  931.2903
 486  1079.353
 487  1072.945
 488  1741.6
 489  1665.919
 490  1485.603
 491  1330.042
 492  1279.482
 493  1218.657
 494  1174.192
 495  1160.939
 496  1144.425
 497  1289.221
 498  1336.144
 499  1057.666
 500  791.8013
 501  952.7137
 502  1357.144
 503  1429.566
 504  1408.344
 505  1207.46
 506  973.2728
 507  1117.552
 508  1200.778
 509  1256.209
 510  1494.9
 511  1259.116
