# Input file       =  1180839218.112024_cleaned.dat
# Candidate        =  PSR_0332+5434
# Telescope        =  AR
# Epoch_topo       =  57911.120799907687
# Epoch_bary       =  N/A
# T_sample         =  0.002
# Data Folded      =  7143424
# Data Avg         =  0.141991218903376
# Data StdDev      =  3.68704876368521 
# Profile Bins     =  512
# Profile Avg      =  1980.82961398101 
# Profile StdDev   =  435.508980882115 
# Reduced chi-sqr  =  0.782
# Prob(Noise)      <  1   (~0.0 sigma)
# P_topo (ms)      =  714.510650598579  +/- 6.36e-05
# P'_topo (s/s)    =  -0                +/- 3.45e-11
# P''_topo (s/s^2) =  0                 +/- 1.56e-14
# P_bary (ms)      =  N/A
# P'_bary (s/s)    =  N/A
# P''_bary (s/s^2) =  N/A
# P_orb (s)        =  N/A
# asin(i)/c (s)    =  N/A
# eccentricity     =  N/A
# w (rad)          =  N/A
# T_peri           =  N/A
######################################################
   0  1930.818
   1  2166.823
   2  1757.738
   3  1882.355
   4  1753.52
   5  1848.34
   6  1940.431
   7  2287.488
   8  2160.367
   9  1981.912
  10  1906.069
  11  1860.765
  12  2140.473
  13  2324.897
  14  2212.163
  15  1869.971
  16  2068.653
  17  1985.169
  18  1810.391
  19  1918.922
  20  2138.448
  21  2030.581
  22  2005.51
  23  2055.102
  24  1717.238
  25  1805.984
  26  1907.554
  27  1981.27
  28  1875.755
  29  1687.745
  30  1797.977
  31  2082.428
  32  2109.767
  33  1965.376
  34  2007.242
  35  1836.253
  36  1748.385
  37  2050.303
  38  2001.795
  39  1755.289
  40  1913.443
  41  2070.532
  42  2188.684
  43  2251.797
  44  2239.729
  45  2034.246
  46  2053.154
  47  2213.543
  48  2253.965
  49  2194.672
  50  2150.833
  51  2012.201
  52  2326.551
  53  2499.361
  54  2281.424
  55  2136.668
  56  2335.79
  57  1701.316
  58  1756.418
  59  1915.454
  60  2203.355
  61  2030.286
  62  1834.681
  63  2300.074
  64  2349.449
  65  2091.574
  66  2146.615
  67  2227.631
  68  2560.203
  69  3248.469
  70  3345.46
  71  3058.205
  72  3200.608
  73  2986.734
  74  2373.56
  75  2230.838
  76  2142.302
  77  2033.074
  78  2116.363
  79  1987.56
  80  1818.705
  81  2211.198
  82  2290.38
  83  2255.061
  84  2143.594
  85  2153.108
  86  2121.84
  87  2043.875
  88  2042.977
  89  2051.865
  90  2066.2
  91  1752.013
  92  1881.303
  93  1843.998
  94  1934.511
  95  1916.858
  96  1748.522
  97  1632.411
  98  1884.396
  99  1859.684
 100  1802.841
 101  2045.622
 102  2167.861
 103  2150.558
 104  1837.103
 105  1836.65
 106  1945.026
 107  2025.601
 108  1638.355
 109  1916.127
 110  2230.523
 111  1880.122
 112  1916.293
 113  1844.109
 114  2117.768
 115  2119.877
 116  2051.36
 117  1946.638
 118  1868.473
 119  1629.248
 120  1742.546
 121  1797.309
 122  1867.901
 123  1566.157
 124  1653.5
 125  1606.807
 126  1663.163
 127  2055.399
 128  1905.249
 129  2068.848
 130  1947.015
 131  2097.283
 132  2085.694
 133  1659.309
 134  1797.613
 135  2028.151
 136  1668.161
 137  1531.526
 138  1607.628
 139  2013.264
 140  2010.22
 141  1811.901
 142  1747.845
 143  1900.268
 144  2108.332
 145  2276.709
 146  2146.44
 147  2135.524
 148  2098.967
 149  1719.008
 150  1597.533
 151  2036.563
 152  2189.183
 153  1763.004
 154  2059.766
 155  2159.873
 156  2130.117
 157  2483.532
 158  2231.437
 159  1958.465
 160  1955.662
 161  2098.059
 162  2053.422
 163  2460.442
 164  2988.585
 165  2758.111
 166  2442.667
 167  2390.863
 168  2253.219
 169  2055.847
 170  2031.486
 171  2412.553
 172  2470.596
 173  2607.77
 174  2289.466
 175  2035.945
 176  2135.725
 177  1965.151
 178  2075.745
 179  2384.364
 180  2555.803
 181  2274.89
 182  1791.755
 183  1784.255
 184  1894.141
 185  1854.503
 186  1763.351
 187  1862.342
 188  2029.245
 189  1896.428
 190  1674.001
 191  1655.969
 192  1930.302
 193  2023.083
 194  2184.819
 195  2072.856
 196  2210.157
 197  1994.341
 198  1976.67
 199  1717.085
 200  1717.601
 201  1896.061
 202  1544.693
 203  1540.883
 204  1778.317
 205  1959.045
 206  1999.427
 207  2039.722
 208  2145.365
 209  2307.922
 210  2184.534
 211  2251.669
 212  2113.942
 213  2243.597
 214  2385.359
 215  1915.22
 216  2110.554
 217  2100.363
 218  2244.799
 219  2070.736
 220  2172.437
 221  2028.053
 222  2110.743
 223  2180.086
 224  2036.722
 225  2053.624
 226  2334.55
 227  2331.719
 228  2160.275
 229  2182.755
 230  2324.115
 231  2261.164
 232  2214.71
 233  2327.012
 234  2342.931
 235  2271.276
 236  2344.815
 237  2306.226
 238  2163.434
 239  2065.374
 240  2133.586
 241  2234.892
 242  2353.318
 243  2436.731
 244  2473.782
 245  2392.998
 246  2264.833
 247  2115.186
 248  1815.826
 249  1534.449
 250  1749.405
 251  1940.319
 252  1999.853
 253  2209.383
 254  2180.198
 255  2627.442
 256  2400.618
 257  1973.363
 258  1791.26
 259  2199.061
 260  2350.912
 261  1959.59
 262  2151.487
 263  2437.617
 264  2488.861
 265  2233.446
 266  1811.897
 267  1977.121
 268  2057.369
 269  1762.557
 270  1820.709
 271  2107.674
 272  2259.569
 273  1720.787
 274  1702.395
 275  1987.643
 276  1999.013
 277  2165.768
 278  1687.589
 279  1688.968
 280  1783.112
 281  2059.207
 282  1641.648
 283  1529.332
 284  1836.273
 285  1632.345
 286  1453.528
 287  1821.637
 288  2061.393
 289  1793.887
 290  1903.404
 291  2120.339
 292  2213.064
 293  1770.103
 294  1752.668
 295  1877.77
 296  2176.865
 297  2276.955
 298  2008.727
 299  2143.767
 300  2131.417
 301  2133.207
 302  2028.13
 303  2183.766
 304  2073.69
 305  2402.243
 306  2091.421
 307  2124.678
 308  1897.792
 309  1835.287
 310  1877.099
 311  1704.339
 312  1908.887
 313  2417.913
 314  2072.4
 315  1903.193
 316  1829.047
 317  1906.209
 318  1657.866
 319  1824.328
 320  2044.495
 321  1975.277
 322  1840.55
 323  1602.79
 324  1784.132
 325  1800.85
 326  2227.643
 327  2286.706
 328  2377.553
 329  2196.479
 330  1836.313
 331  1858.559
 332  1623.759
 333  1458.53
 334  1632.728
 335  1736.992
 336  2062.733
 337  2017.946
 338  2000.008
 339  1850.486
 340  1614.668
 341  2002.542
 342  2141.998
 343  1801.162
 344  1826.705
 345  1734.869
 346  1878.083
 347  1691.396
 348  1686.708
 349  1639.444
 350  1772.075
 351  1540.899
 352  1079.401
 353  1577.097
 354  1892.202
 355  1679.401
 356  1663.494
 357  2129.585
 358  1978.665
 359  1961.656
 360  1849.271
 361  1937.809
 362  1980.303
 363  2218.865
 364  2049.838
 365  1502.905
 366  1831.129
 367  1953.181
 368  1779.54
 369  1777.978
 370  2039.866
 371  1900.879
 372  1774.05
 373  1925.758
 374  1929.703
 375  1824.01
 376  1444.658
 377  1412.785
 378  2098.733
 379  2500.791
 380  2409.877
 381  1832.298
 382  1907.606
 383  2266.333
 384  1933.544
 385  1808.736
 386  1928.959
 387  2197.581
 388  1956.651
 389  1823.176
 390  1816.759
 391  1656.654
 392  1993.527
 393  2098.202
 394  2185.809
 395  2547.95
 396  2294.66
 397  1715.87
 398  1600.175
 399  1910.67
 400  1943.074
 401  1679.962
 402  1784.482
 403  1845.34
 404  1757.303
 405  1876.451
 406  2008.198
 407  1932.977
 408  1982.928
 409  2066.566
 410  2059.139
 411  2177.858
 412  2516.517
 413  1916.554
 414  1616.884
 415  1837.652
 416  1740.139
 417  1700.627
 418  1423.194
 419  1584.583
 420  1722.02
 421  1328.251
 422  1437.629
 423  1791.494
 424  1829.98
 425  1872.373
 426  1684.208
 427  1476.272
 428  1999.801
 429  2011.74
 430  1715.445
 431  1447.026
 432  1431.021
 433  1626.683
 434  1547.621
 435  1720.251
 436  1731.347
 437  1849.515
 438  1657.225
 439  1736.494
 440  1725.684
 441  1889.289
 442  1781.326
 443  1982.733
 444  2353.294
 445  2708.101
 446  2484.599
 447  2234.13
 448  2163.375
 449  2111.112
 450  1742.217
 451  1653.841
 452  1855.968
 453  1888.53
 454  1999.359
 455  2100.56
 456  1818.037
 457  1856.528
 458  1963.541
 459  1873.107
 460  1540.472
 461  1661.907
 462  2313.195
 463  2202.271
 464  1948.561
 465  2102.493
 466  1820.672
 467  1581.997
 468  1632.536
 469  1808.269
 470  1850.515
 471  2001.483
 472  2006.922
 473  1971.47
 474  2403.177
 475  1923.267
 476  1821.975
 477  2182.614
 478  2323.297
 479  1971.035
 480  1624.752
 481  1891.42
 482  2025.817
 483  1813.603
 484  1634.017
 485  1592.196
 486  1608.241
 487  1590.262
 488  1355.722
 489  1965.934
 490  1961.723
 491  1684.748
 492  1809.216
 493  1843.138
 494  1761.186
 495  1642.964
 496  1634.169
 497  1749.018
 498  1825.017
 499  1826.3
 500  1595.503
 501  1527.116
 502  1664.489
 503  1909.933
 504  1865.021
 505  1825.817
 506  1709.967
 507  1898.274
 508  1963.771
 509  1937.803
 510  2087.037
 511  2172.765
