# Input file       =  1180839218.112024_cleaned.dat
# Candidate        =  PSR_0332+5434
# Telescope        =  AR
# Epoch_topo       =  57911.120799907687
# Epoch_bary       =  N/A
# T_sample         =  0.002
# Data Folded      =  7143424
# Data Avg         =  0.141991218903376
# Data StdDev      =  3.68704876368521 
# Profile Bins     =  512
# Profile Avg      =  1980.82961394476 
# Profile StdDev   =  435.508980882115 
# Reduced chi-sqr  =  0.783
# Prob(Noise)      <  1   (~0.0 sigma)
# P_topo (ms)      =  714.510650745719  +/- 6.33e-05
# P'_topo (s/s)    =  -0                +/- 3.43e-11
# P''_topo (s/s^2) =  0                 +/- 1.56e-14
# P_bary (ms)      =  N/A
# P'_bary (s/s)    =  N/A
# P''_bary (s/s^2) =  N/A
# P_orb (s)        =  N/A
# asin(i)/c (s)    =  N/A
# eccentricity     =  N/A
# w (rad)          =  N/A
# T_peri           =  N/A
######################################################
   0  2662.336
   1  2335.259
   2  1950.144
   3  1807.499
   4  2240.396
   5  2330.401
   6  1928.034
   7  2206.738
   8  2429.198
   9  2500.334
  10  2176.347
  11  1811.793
  12  1986.285
  13  2052.479
  14  1740.647
  15  1840.218
  16  2150.589
  17  2217.857
  18  1674.792
  19  1736.265
  20  2002.135
  21  2013.143
  22  2166.163
  23  1639.667
  24  1680.07
  25  1827.396
  26  2051.458
  27  1592.063
  28  1554.181
  29  1868.535
  30  1568.391
  31  1497.848
  32  1849.71
  33  2051.101
  34  1772.815
  35  1924.982
  36  2148.235
  37  2178.491
  38  1765.251
  39  1708.196
  40  1968.448
  41  2154.628
  42  2284.448
  43  1974.172
  44  2178.221
  45  2125.419
  46  2123.497
  47  2042.538
  48  2167.851
  49  2111.682
  50  2382.716
  51  2093.294
  52  2096.845
  53  1887.167
  54  1835.039
  55  1874.455
  56  1695.786
  57  1986.028
  58  2406.495
  59  2024.173
  60  1906.547
  61  1819.522
  62  1901.509
  63  1633.874
  64  1880.368
  65  2038.934
  66  1970.901
  67  1809.081
  68  1589.292
  69  1807.753
  70  1809.713
  71  2270.677
  72  2302.103
  73  2365.021
  74  2175.849
  75  1790.232
  76  1893.098
  77  1532.915
  78  1523.502
  79  1612.3
  80  1784.966
  81  2072.037
  82  1989.839
  83  2032.281
  84  1787.404
  85  1647.132
  86  2024.989
  87  2124.174
  88  1787.759
  89  1817.486
  90  1755.387
  91  1869.155
  92  1687.214
  93  1674.256
  94  1655.167
  95  1772.272
  96  1471.521
  97  1070.012
  98  1653.392
  99  1878.71
 100  1687.621
 101  1689.904
 102  2155.669
 103  1960.402
 104  1949.684
 105  1844.684
 106  1922.645
 107  2035.703
 108  2209.842
 109  1996.109
 110  1493.294
 111  1881.481
 112  1935.915
 113  1758.969
 114  1806.945
 115  2038.665
 116  1911.594
 117  1727.628
 118  1986.282
 119  1891.497
 120  1817.821
 121  1360.66
 122  1505.578
 123  2141.845
 124  2530.934
 125  2372.273
 126  1771.039
 127  1965.614
 128  2258.391
 129  1895.932
 130  1811.683
 131  1964.503
 132  2196.995
 133  1904.036
 134  1853.266
 135  1789.676
 136  1663.825
 137  2039.833
 138  2087.739
 139  2213.906
 140  2559.998
 141  2237.528
 142  1674.404
 143  1613.388
 144  1940.452
 145  1919.331
 146  1680.234
 147  1797.606
 148  1855.402
 149  1728.187
 150  1909.807
 151  2003.205
 152  1952.063
 153  1982.024
 154  2076.547
 155  2048.381
 156  2218.59
 157  2506.787
 158  1825.125
 159  1643.052
 160  1840.954
 161  1749.946
 162  1651.3
 163  1428.159
 164  1611.904
 165  1722.655
 166  1287.1
 167  1498.695
 168  1778.758
 169  1839.731
 170  1854.946
 171  1641.268
 172  1530.813
 173  2041.421
 174  1967.778
 175  1682.12
 176  1431.747
 177  1443.6
 178  1636.613
 179  1552.329
 180  1735.936
 181  1750.797
 182  1821.786
 183  1664.012
 184  1738.344
 185  1722.07
 186  1880.358
 187  1809.1
 188  2013.761
 189  2411.904
 190  2691.179
 191  2445.071
 192  2241.654
 193  2157.532
 194  2111.136
 195  1678.631
 196  1688.95
 197  1853.754
 198  1900.96
 199  1992.083
 200  2095.486
 201  1799.878
 202  1881.77
 203  1953.573
 204  1860.456
 205  1507.302
 206  1730.35
 207  2365.699
 208  2124.209
 209  1964.708
 210  2095.216
 211  1795.262
 212  1576.928
 213  1648.119
 214  1817.605
 215  1845.956
 216  2044.01
 217  1975.449
 218  2025.028
 219  2377.319
 220  1866.266
 221  1850.578
 222  2236.657
 223  2295.695
 224  1930.414
 225  1619.145
 226  1920.272
 227  2004.639
 228  1791.891
 229  1630.643
 230  1576.849
 231  1637.717
 232  1549.257
 233  1397.064
 234  2020.799
 235  1895.736
 236  1696.958
 237  1814.326
 238  1839.211
 239  1750.403
 240  1641.552
 241  1664.147
 242  1737.229
 243  1835.973
 244  1793.575
 245  1588.342
 246  1532.229
 247  1686.472
 248  1911.407
 249  1863.498
 250  1816
 251  1712.509
 252  1946.406
 253  1935.255
 254  1958.459
 255  2105.99
 256  2150.362
 257  1930.904
 258  2161.907
 259  1738.937
 260  1891.457
 261  1743.704
 262  1833.109
 263  2001.327
 264  2264.586
 265  2162.472
 266  1951.609
 267  1935.441
 268  1843.404
 269  2201.353
 270  2310.939
 271  2169.609
 272  1866.32
 273  2071.652
 274  1974.068
 275  1803.974
 276  1957.047
 277  2136.38
 278  2025.891
 279  2007.213
 280  2025.48
 281  1700.557
 282  1828.186
 283  1905.125
 284  1983.04
 285  1868.963
 286  1650.702
 287  1881.912
 288  2042.461
 289  2126.892
 290  1959.245
 291  2009.115
 292  1805.827
 293  1761.984
 294  2082.014
 295  1966.081
 296  1774.538
 297  1915.107
 298  2103.054
 299  2168.014
 300  2257.066
 301  2228.647
 302  2025.688
 303  2083.65
 304  2214.176
 305  2255.446
 306  2174.835
 307  2157.888
 308  1983.123
 309  2404.017
 310  2474.114
 311  2259.863
 312  2152.703
 313  2288.126
 314  1667.11
 315  1762.024
 316  1986.865
 317  2187.829
 318  2007.147
 319  1854.218
 320  2358.125
 321  2300.624
 322  2097.23
 323  2135.105
 324  2243.812
 325  2647.637
 326  3306.8
 327  3295.834
 328  3055.016
 329  3204.35
 330  2937.673
 331  2329.771
 332  2229.14
 333  2114.27
 334  2041.343
 335  2119.022
 336  1936.583
 337  1870.209
 338  2215.352
 339  2319.901
 340  2220.025
 341  2149.814
 342  2122.169
 343  2143.125
 344  2041.127
 345  2047.489
 346  2061.276
 347  2036.106
 348  1738.005
 349  1885.075
 350  1868.431
 351  1897.192
 352  1962.153
 353  1682.812
 354  1669.391
 355  1892.877
 356  1852.167
 357  1813.479
 358  2067.274
 359  2187.656
 360  2107.599
 361  1824.11
 362  1833.597
 363  1988.881
 364  1965.345
 365  1649.522
 366  1957.169
 367  2239.069
 368  1846.481
 369  1931.564
 370  1838.259
 371  2148.222
 372  2122.354
 373  2010.311
 374  1968.971
 375  1820.176
 376  1647.955
 377  1711.379
 378  1848.17
 379  1831.48
 380  1541.855
 381  1670.308
 382  1590.664
 383  1715.131
 384  2084.789
 385  1869.983
 386  2071.386
 387  1949.928
 388  2141.206
 389  2022.459
 390  1652.252
 391  1824.331
 392  2026.434
 393  1633.505
 394  1525.938
 395  1627.368
 396  2061.311
 397  1984.325
 398  1798.635
 399  1753.187
 400  1929.685
 401  2115.516
 402  2284.367
 403  2130.916
 404  2149.317
 405  2059.188
 406  1683.858
 407  1614.834
 408  2105.285
 409  2143.352
 410  1759.427
 411  2095.699
 412  2144.118
 413  2182.417
 414  2452.306
 415  2194.113
 416  1946.739
 417  1989.908
 418  2086.454
 419  2064.383
 420  2541.645
 421  2999.452
 422  2711.585
 423  2427.241
 424  2380.796
 425  2255.639
 426  2008.516
 427  2060.04
 428  2457.642
 429  2443.679
 430  2632.271
 431  2216.92
 432  2068.617
 433  2129.907
 434  1961.309
 435  2088.228
 436  2421.396
 437  2547.621
 438  2231.9
 439  1738.178
 440  1815.234
 441  1888.776
 442  1846.014
 443  1761.027
 444  1885.779
 445  2043.073
 446  1852.589
 447  1671.564
 448  1678.609
 449  1948.345
 450  2049.088
 451  2137.661
 452  2116.9
 453  2183.255
 454  1997.398
 455  1955.685
 456  1692.286
 457  1753.283
 458  1881.127
 459  1507.367
 460  1575.156
 461  1788.815
 462  1978.704
 463  1997.419
 464  2039.029
 465  2174.737
 466  2291.981
 467  2186.433
 468  2237.856
 469  2131.833
 470  2281.86
 471  2336.851
 472  1918.174
 473  2112.181
 474  2094.319
 475  2248.176
 476  2061.279
 477  2187.436
 478  2005.738
 479  2135.552
 480  2182.515
 481  2006.397
 482  2102.201
 483  2330.705
 484  2327.253
 485  2129.839
 486  2208.147
 487  2338.738
 488  2245.705
 489  2213.73
 490  2342.577
 491  2349.893
 492  2251.167
 493  2357.848
 494  2284.629
 495  2142.294
 496  2078.422
 497  2136.079
 498  2257.015
 499  2357.616
 500  2455.635
 501  2457.587
 502  2384.193
 503  2247.774
 504  2086.296
 505  1777.081
 506  1537.491
 507  1775.119
 508  1945.413
 509  2028.544
 510  2226.857
 511  2189.777
