# Input file       =  1180408342.103741_cleaned.dat
# Candidate        =  PSR_0332+5434
# Telescope        =  AR
# Epoch_topo       =  57906.133809071078
# Epoch_bary       =  N/A
# T_sample         =  0.002
# Data Folded      =  7208960
# Data Avg         =  0.226177334583323
# Data StdDev      =  6.3127514285668  
# Profile Bins     =  1024
# Profile Avg      =  1592.23877019404 
# Profile StdDev   =  529.66956436637  
# Reduced chi-sqr  =  0.437
# Prob(Noise)      <  1   (~0.0 sigma)
# P_topo (ms)      =  714.515465829635  +/- 5.2e-05
# P'_topo (s/s)    =  -0                +/- 2.79e-11
# P''_topo (s/s^2) =  0                 +/- 1.26e-14
# P_bary (ms)      =  N/A
# P'_bary (s/s)    =  N/A
# P''_bary (s/s^2) =  N/A
# P_orb (s)        =  N/A
# asin(i)/c (s)    =  N/A
# eccentricity     =  N/A
# w (rad)          =  N/A
# T_peri           =  N/A
######################################################
   0  1582.307
   1  1462.959
   2  1448.555
   3  1613.032
   4  1475.31
   5  1606.342
   6  1634.562
   7  1567.742
   8  1555.627
   9  1559.113
  10  1521.766
  11  1529.965
  12  1580.073
  13  1667.137
  14  1675.444
  15  1538.965
  16  1535.815
  17  1513.414
  18  1542.188
  19  1691.254
  20  1806.74
  21  1816.178
  22  1680.242
  23  1595.441
  24  1564.309
  25  1540.355
  26  1405.289
  27  1623.761
  28  1678.036
  29  1846.72
  30  1804.681
  31  1718.356
  32  1752.738
  33  1870.383
  34  1951.915
  35  1940.863
  36  1743.913
  37  1603.028
  38  1434.911
  39  1457.703
  40  1439.497
  41  1539.996
  42  1465.38
  43  1469.669
  44  1501.049
  45  1493.933
  46  1471.606
  47  1438.081
  48  1587.064
  49  1683.732
  50  1678.455
  51  1862.11
  52  1943.47
  53  1701.886
  54  1421.03
  55  1453.872
  56  1634.061
  57  1741.204
  58  1688.229
  59  1708.411
  60  1618.696
  61  1703.886
  62  1776.356
  63  1880.147
  64  1707.48
  65  1591.103
  66  1480.086
  67  1332.875
  68  1295.252
  69  1380.355
  70  1682.772
  71  1972.056
  72  1662.275
  73  1584.456
  74  1408.948
  75  1606.041
  76  1723.563
  77  1685.323
  78  1622.843
  79  1579.546
  80  1436.843
  81  1420.581
  82  1371.672
  83  1388.876
  84  1561.385
  85  1621.062
  86  1748.293
  87  1497.739
  88  1393.876
  89  1653.739
  90  1829.253
  91  1762.849
  92  1686.434
  93  1676.364
  94  1701.327
  95  1556.091
  96  1457.404
  97  1481.427
  98  1509.223
  99  1532.794
 100  1677.154
 101  1665.565
 102  1586.858
 103  1451.325
 104  1557.863
 105  1715.153
 106  1671.176
 107  1533.147
 108  1633.507
 109  1603.743
 110  1613.002
 111  1550.18
 112  1535.354
 113  1625.3
 114  1603.83
 115  1697.185
 116  1690.258
 117  1562.331
 118  1522.215
 119  1541.727
 120  1634.84
 121  1685.338
 122  1651.183
 123  1596.299
 124  1492.231
 125  1597.075
 126  1650.156
 127  1796.251
 128  1775.719
 129  1758.001
 130  1571.922
 131  1594.691
 132  1452.472
 133  1498.309
 134  1506.438
 135  1618.514
 136  1652.809
 137  1377.832
 138  1281.24
 139  1191.156
 140  1401.614
 141  1703.346
 142  1892.053
 143  2124.02
 144  2027.813
 145  1830.231
 146  1674.907
 147  1573.541
 148  1427.392
 149  1577.512
 150  1626.325
 151  1700.473
 152  1493.344
 153  1337.074
 154  1340.081
 155  1280.644
 156  1326.547
 157  1605.939
 158  1677.941
 159  1764.476
 160  1667.249
 161  1646.106
 162  1783.981
 163  1856.736
 164  1979.185
 165  2071.813
 166  1917.691
 167  1946.747
 168  1868.874
 169  1771.488
 170  1667.878
 171  1611.696
 172  1822.332
 173  1805.174
 174  1564.195
 175  1456.967
 176  1455.905
 177  1365.808
 178  1486.995
 179  1450.935
 180  1545.433
 181  1418.261
 182  1315.354
 183  1356.275
 184  1302.143
 185  1254.307
 186  1269.09
 187  1160.703
 188  1158.008
 189  1164.172
 190  1302.744
 191  1483.312
 192  1440.254
 193  1471.919
 194  1653.624
 195  1636.92
 196  1626.763
 197  1423.12
 198  1324.476
 199  1453.724
 200  1605.722
 201  1536.135
 202  1427.851
 203  1452.302
 204  1637.276
 205  1614.446
 206  1583.572
 207  1544.224
 208  1484.616
 209  1509.985
 210  1490.817
 211  1594.578
 212  1450.991
 213  1413.28
 214  1524.045
 215  1667.762
 216  1605.989
 217  1424.677
 218  1341.257
 219  1471.312
 220  1416.906
 221  1472.698
 222  1587.073
 223  1588.898
 224  1656.551
 225  1629.333
 226  1547.763
 227  1553.543
 228  1609.738
 229  1912.983
 230  1924.856
 231  1875.014
 232  1860.133
 233  1856.728
 234  1773.672
 235  1727.95
 236  1527.411
 237  1642.307
 238  1498.651
 239  1635.393
 240  1633.491
 241  1733.148
 242  1735.529
 243  1910.648
 244  1887.275
 245  1908.202
 246  2056.714
 247  2024.689
 248  1915.384
 249  1625.238
 250  1728.972
 251  1779.487
 252  1760.59
 253  1648.662
 254  1561.225
 255  1450.682
 256  1666.298
 257  1725.118
 258  1807.497
 259  1680.39
 260  1549.351
 261  1655.515
 262  1625.27
 263  1697.897
 264  1907.777
 265  1864.887
 266  1776.154
 267  1724.244
 268  1801.203
 269  1745.885
 270  1510.15
 271  1387.498
 272  1236.746
 273  1007.579
 274  1096.63
 275  1297.612
 276  1376.784
 277  1304.267
 278  1377.045
 279  1488.073
 280  1289.341
 281  1078.05
 282  1177.205
 283  1205.26
 284  1310.426
 285  1409.526
 286  1516.755
 287  1392.81
 288  1193.123
 289  1287.158
 290  1374.266
 291  1456.79
 292  1481.058
 293  1562.443
 294  1596.649
 295  1478.313
 296  1446.67
 297  1503.665
 298  1438.09
 299  1410.479
 300  1340.435
 301  1439.197
 302  1405.582
 303  1283.654
 304  1224.816
 305  1380.606
 306  1651.487
 307  1870.22
 308  1781.222
 309  1706.648
 310  1574.728
 311  1557.325
 312  1615.632
 313  1675.609
 314  1742.008
 315  1625.228
 316  1421.322
 317  1228.589
 318  1233.39
 319  1263.66
 320  1416.095
 321  1486.294
 322  1300.022
 323  1250.267
 324  1381.667
 325  1414.868
 326  1511.214
 327  1348.636
 328  1435.191
 329  1557.28
 330  1402.88
 331  1340.139
 332  1261.586
 333  1383.395
 334  1606.609
 335  1640.67
 336  1553.266
 337  1347.402
 338  1187.074
 339  1409.533
 340  1376.127
 341  1382.397
 342  1452.18
 343  1495.213
 344  1693.743
 345  1591.328
 346  1437.901
 347  1578.858
 348  1609.237
 349  1726.381
 350  1683.768
 351  1594.289
 352  1579.72
 353  1438.463
 354  1449.444
 355  1494.881
 356  1378.103
 357  1594.191
 358  1797.195
 359  1863.233
 360  1573.6
 361  1421.087
 362  1472.428
 363  1396.059
 364  1369.156
 365  1456.921
 366  1679.075
 367  1518.129
 368  1236.627
 369  1171.663
 370  1209.244
 371  1438.853
 372  1487.583
 373  1641.808
 374  1450.396
 375  1412.745
 376  1408.303
 377  1621.759
 378  1535.099
 379  1652.361
 380  1787.256
 381  1756.668
 382  1571.038
 383  1485.762
 384  1587.985
 385  1463.106
 386  1294.94
 387  1303.457
 388  1369.458
 389  1259.302
 390  1213.482
 391  1523.062
 392  1768.554
 393  1710.018
 394  1855.173
 395  2005.63
 396  2003.026
 397  1792.208
 398  1690.2
 399  1786.576
 400  1694.381
 401  1662.17
 402  1527.224
 403  1380.264
 404  1389.791
 405  1497.672
 406  1516.791
 407  1613.618
 408  1604.648
 409  1841.483
 410  1722.138
 411  1574.016
 412  1652.976
 413  1546.306
 414  1511.63
 415  1413.839
 416  1501.814
 417  1549.446
 418  1318.52
 419  1311.491
 420  1480.998
 421  1378.835
 422  1443.437
 423  1489.166
 424  1537.707
 425  1676.328
 426  1735.414
 427  1960.937
 428  1936.94
 429  1839.441
 430  1918.68
 431  1920.906
 432  1680.036
 433  1540.454
 434  1660.154
 435  1760.019
 436  1843.06
 437  1759.443
 438  1825.71
 439  1657.93
 440  1688.178
 441  1908.224
 442  1879.021
 443  1649.571
 444  1480.92
 445  1668.295
 446  1591.488
 447  1258.182
 448  1061.306
 449  1231.183
 450  1291.544
 451  1314.145
 452  1516.709
 453  1726.854
 454  1785.755
 455  1685.929
 456  1592.984
 457  1664.147
 458  1623.221
 459  1642.981
 460  1525.479
 461  1400.966
 462  1371.434
 463  1667.755
 464  1853.432
 465  1850.001
 466  1654.314
 467  1616.457
 468  1671.557
 469  1695.515
 470  1597.617
 471  1399.347
 472  1472.602
 473  1452.415
 474  1404.146
 475  1244.86
 476  1365.203
 477  1506.677
 478  1523.443
 479  1493.477
 480  1319.594
 481  1189.7
 482  1316.95
 483  1456.987
 484  1487.227
 485  1428.072
 486  1444.04
 487  1630.28
 488  1631.784
 489  1524.187
 490  1630.279
 491  1734.492
 492  1722.874
 493  1526.575
 494  1378.634
 495  1524.585
 496  1444.242
 497  1407.259
 498  1524.948
 499  1724.205
 500  1754.062
 501  1645.742
 502  1491.191
 503  1589.633
 504  1568.369
 505  1592.497
 506  1695.175
 507  1699.632
 508  1638.158
 509  1592.919
 510  1555.422
 511  1593.366
 512  1528.71
 513  1448.059
 514  1657.227
 515  1547.529
 516  1509.166
 517  1455.224
 518  1626.192
 519  1743.952
 520  1651.363
 521  1552.59
 522  1828.108
 523  1784.872
 524  1779.624
 525  1642.488
 526  1539.885
 527  1572.926
 528  1576.345
 529  1671.723
 530  1587.443
 531  1499.934
 532  1586.216
 533  1681.711
 534  1489.223
 535  1424.537
 536  1480.93
 537  1473.712
 538  1317.482
 539  1133.461
 540  1341.259
 541  1484.549
 542  1572.984
 543  1726.688
 544  1833.324
 545  1678.131
 546  1579.753
 547  1544.018
 548  1580.888
 549  1517.935
 550  1682.517
 551  1720.382
 552  1642.013
 553  1487.198
 554  1609.465
 555  1783.648
 556  1669.005
 557  1634.475
 558  1644.319
 559  1647.383
 560  1472.334
 561  1445.101
 562  1399.463
 563  1645.848
 564  1699.934
 565  1938.252
 566  1652.302
 567  1557.147
 568  1725.743
 569  1926.51
 570  2049.539
 571  2085.676
 572  1962.792
 573  2083.238
 574  1975.387
 575  1814.373
 576  1661.968
 577  1441.031
 578  1537.051
 579  1703.405
 580  1598.047
 581  1426.177
 582  1294.665
 583  1403.02
 584  1567.524
 585  1612.385
 586  1687.581
 587  1819.824
 588  1700.98
 589  1609.06
 590  1587.572
 591  1753.704
 592  1857.208
 593  1809.232
 594  1702.434
 595  1674.255
 596  1447.829
 597  1595.702
 598  1545.515
 599  1592.815
 600  1715.621
 601  1771.577
 602  1877.026
 603  1653.178
 604  1434.588
 605  1540.621
 606  1645.599
 607  1748.884
 608  1860.614
 609  1831.417
 610  1609.305
 611  1356.907
 612  1484.385
 613  1685.893
 614  1740.713
 615  1869.73
 616  1965.812
 617  1738.795
 618  1307.192
 619  1179.495
 620  1269.28
 621  1430.649
 622  1454.842
 623  1452.535
 624  1524.799
 625  1465.888
 626  1467.891
 627  1327.734
 628  1354.044
 629  1462.502
 630  1547.526
 631  1575.367
 632  1495.104
 633  1417.261
 634  1461.692
 635  1670.895
 636  1879.669
 637  1802.952
 638  1627.768
 639  1526.035
 640  1466.887
 641  1602.694
 642  1616.713
 643  1538.873
 644  1449.014
 645  1301.807
 646  1350.404
 647  1423.908
 648  1375.994
 649  1443.364
 650  1594.666
 651  1924.473
 652  1856.982
 653  1630.45
 654  1594.239
 655  1730.636
 656  1730.376
 657  1835.339
 658  1809.103
 659  1841.82
 660  1595.379
 661  1410.52
 662  1600.519
 663  1698.037
 664  1730.327
 665  1793.682
 666  1755.128
 667  1838.784
 668  1513.83
 669  1379.125
 670  1616.095
 671  1718.067
 672  1788.275
 673  1870.096
 674  1834.496
 675  1762.287
 676  1581.876
 677  1593.318
 678  1627.907
 679  1278.938
 680  1502.599
 681  1468.355
 682  1573.394
 683  1416.028
 684  1563.927
 685  1611.069
 686  1715.73
 687  1813.366
 688  1945.253
 689  1902.294
 690  1481.142
 691  1572.131
 692  1723.58
 693  1878.217
 694  1931.268
 695  1976.107
 696  2142.385
 697  1911.17
 698  1931.702
 699  1871.873
 700  1885.433
 701  1710.2
 702  1700.934
 703  1649.924
 704  1604.097
 705  1516.088
 706  1541.798
 707  1682.145
 708  1734.26
 709  1650.75
 710  1606.979
 711  1675.497
 712  1647.146
 713  1508.471
 714  1395.842
 715  1567.512
 716  1705.491
 717  1763.175
 718  1605.685
 719  1535.962
 720  1542.552
 721  1628.826
 722  1629.698
 723  1598.896
 724  1517.724
 725  1565.725
 726  1474.649
 727  1469.154
 728  1285.82
 729  1419.166
 730  1626.069
 731  1764.806
 732  1765.956
 733  1630.547
 734  1609.29
 735  1639.036
 736  1761.93
 737  1904.791
 738  1907.994
 739  1748.04
 740  1656.326
 741  1590.33
 742  1549.778
 743  1606.698
 744  1625.673
 745  1628.236
 746  1525.318
 747  1373.55
 748  1469.03
 749  1628.945
 750  1656.129
 751  1850.971
 752  2037.187
 753  2384.497
 754  2378.636
 755  2302.538
 756  2266.376
 757  2296.461
 758  2310.552
 759  2265.032
 760  1971.07
 761  1764.63
 762  1505.731
 763  1458.2
 764  1771.765
 765  1852.804
 766  1730.596
 767  1557.922
 768  1462.484
 769  1711.605
 770  1604.334
 771  1572.633
 772  1727.519
 773  1639.607
 774  1518.279
 775  1314.176
 776  1343.346
 777  1469.535
 778  1560.006
 779  1712.464
 780  1846.311
 781  1677.577
 782  1553.26
 783  1574.315
 784  1691.778
 785  1702.804
 786  1445.532
 787  1582.677
 788  1648.405
 789  1490.883
 790  1488.088
 791  1499.328
 792  1470.651
 793  1523.739
 794  1594.278
 795  1722.241
 796  1512.618
 797  1475.74
 798  1601.465
 799  1631.048
 800  1678.251
 801  1748.02
 802  1884.335
 803  1665.87
 804  1529.167
 805  1546.806
 806  1648.101
 807  1446.76
 808  1501.074
 809  1598.353
 810  1673.906
 811  1411.109
 812  1408.865
 813  1519.973
 814  1604.697
 815  1571.449
 816  1563.89
 817  1486.421
 818  1546.251
 819  1528.408
 820  1629.725
 821  1817.985
 822  1865.618
 823  1821.587
 824  1591.551
 825  1511.857
 826  1633.891
 827  1754.301
 828  1925.884
 829  1925.466
 830  1808.65
 831  1729.369
 832  1676.32
 833  1629.545
 834  1655.929
 835  1632.301
 836  1716.906
 837  1831.301
 838  1803.248
 839  1779.506
 840  1729.273
 841  1688.877
 842  1801.994
 843  1682.26
 844  1744.91
 845  1630.845
 846  1560.138
 847  1540.544
 848  1687.312
 849  1681.797
 850  1836.049
 851  1860.664
 852  1933.494
 853  1748.669
 854  1609.445
 855  1863.306
 856  1908.212
 857  1653.04
 858  1618.904
 859  1815.502
 860  1956.557
 861  1707.471
 862  1576.63
 863  1752.285
 864  1920.72
 865  1783.568
 866  1708.208
 867  1515.555
 868  1597.764
 869  1634.009
 870  1697.875
 871  1792.401
 872  1653.744
 873  1691.428
 874  1666.46
 875  1628.453
 876  1535.403
 877  1428.502
 878  1442.038
 879  1550.613
 880  1576.451
 881  1616.743
 882  1633.234
 883  1763.741
 884  1844.131
 885  1873.764
 886  1806.293
 887  2017.303
 888  2138.996
 889  1984.434
 890  1602.074
 891  1492.419
 892  1737.818
 893  1724.474
 894  1567.252
 895  1415.842
 896  1247.656
 897  1156.485
 898  1061.162
 899  1360.417
 900  1567.76
 901  1592.925
 902  1634.553
 903  1612.114
 904  1545.36
 905  1324.927
 906  1280.137
 907  1454.507
 908  1554.573
 909  1543.294
 910  1586.923
 911  1412.499
 912  1494.19
 913  1523.266
 914  1723.272
 915  1787.559
 916  1828.175
 917  2023.869
 918  1751.496
 919  1339.321
 920  1215.108
 921  1302.68
 922  1375.7
 923  1346.063
 924  1377.811
 925  1411.267
 926  1335.522
 927  1314.574
 928  1527.056
 929  1484.771
 930  1640.935
 931  1819.178
 932  1780.541
 933  1644.302
 934  1387.731
 935  1568.661
 936  1610.824
 937  1445.253
 938  1318.848
 939  1346.737
 940  1187.564
 941  1249.382
 942  1254.931
 943  1202.579
 944  1325.583
 945  1390.677
 946  1645.983
 947  1540.574
 948  1304.785
 949  1345.233
 950  1425.136
 951  1533.158
 952  1644.513
 953  1639.415
 954  1700.064
 955  1445.994
 956  1302.429
 957  1451.933
 958  1605.066
 959  1589.7
 960  1635.048
 961  1650.117
 962  1598.339
 963  1266.352
 964  1163.398
 965  1194.84
 966  1203.41
 967  1242.694
 968  1341.092
 969  1317.196
 970  1434.45
 971  1488.272
 972  1530.512
 973  1413.84
 974  1306.138
 975  1317.641
 976  1246.672
 977  1316.882
 978  1244.995
 979  1295.793
 980  1429.026
 981  1470.36
 982  1507.955
 983  1446.143
 984  1528.27
 985  1732.335
 986  1634.826
 987  1573.357
 988  1534.674
 989  1670.496
 990  1537.669
 991  1441.71
 992  1343.697
 993  1552.595
 994  1588.902
 995  1744.371
 996  1734.942
 997  1636.397
 998  1690.435
 999  1737.601
1000  1889.629
1001  1841.985
1002  1843.955
1003  1997.51
1004  1807.888
1005  1550.365
1006  1527.335
1007  1725.601
1008  1666.387
1009  1547.625
1010  1369.552
1011  1569.007
1012  1475.906
1013  1375.048
1014  1500.451
1015  1553.198
1016  1665.122
1017  1574.839
1018  1500.494
1019  1642.598
1020  1748.54
1021  1793.693
1022  1898.308
1023  1625.461
