# Input file       =  1182390233.108874_cleaned.dat
# Candidate        =  PSR_0332+5434
# Telescope        =  AR
# Epoch_topo       =  57929.072362371226
# Epoch_bary       =  N/A
# T_sample         =  0.002
# Data Folded      =  7143424
# Data Avg         =  0.103597473648992
# Data StdDev      =  4.05642353412313 
# Profile Bins     =  512
# Profile Avg      =  1445.3718852548  
# Profile StdDev   =  479.139005909558 
# Reduced chi-sqr  =  0.896
# Prob(Noise)      <  0.956   (~0.0 sigma)
# P_topo (ms)      =  714.494177212641  +/- 3.98e-05
# P'_topo (s/s)    =  -0                +/- 2.16e-11
# P''_topo (s/s^2) =  0                 +/- 9.79e-15
# P_bary (ms)      =  N/A
# P'_bary (s/s)    =  N/A
# P''_bary (s/s^2) =  N/A
# P_orb (s)        =  N/A
# asin(i)/c (s)    =  N/A
# eccentricity     =  N/A
# w (rad)          =  N/A
# T_peri           =  N/A
######################################################
   0  1450.01
   1  1098.915
   2  1206.073
   3  1467.448
   4  1478.583
   5  1724.074
   6  1416.921
   7  1277.369
   8  1024.287
   9  1313.217
  10  1508.514
  11  1506.786
  12  1349.987
  13  1363.787
  14  1167.172
  15  912.0723
  16  985.3079
  17  1208.67
  18  1424.064
  19  1360.905
  20  1481.14
  21  1553.454
  22  1369.239
  23  1339.036
  24  978.9886
  25  1362.378
  26  1520.153
  27  1375.772
  28  1515.969
  29  1763.541
  30  1125.905
  31  881.815
  32  683.2152
  33  1051.453
  34  1165.535
  35  1302.107
  36  1401.085
  37  1780.312
  38  1535.637
  39  1398.052
  40  1606.721
  41  1287.349
  42  1431.881
  43  1297.239
  44  1739.867
  45  1637.08
  46  1595.643
  47  1789.074
  48  1426.262
  49  1319.296
  50  1092.316
  51  977.0556
  52  1596.083
  53  1794.838
  54  2158.845
  55  1961.18
  56  1251.021
  57  912.7815
  58  924.7006
  59  1017.588
  60  1276.877
  61  1745.254
  62  1800.953
  63  1585.282
  64  1162.109
  65  773.3307
  66  854.2783
  67  1274.899
  68  1181.089
  69  1582.239
  70  1927.053
  71  1631.11
  72  1529.465
  73  1477.729
  74  1652.821
  75  1134.198
  76  931.3294
  77  1339.338
  78  1356.132
  79  1407.958
  80  1233.84
  81  1436.671
  82  1393.215
  83  1418.098
  84  1205.369
  85  1682.28
  86  1483.125
  87  1319.454
  88  1322.432
  89  1262.028
  90  1391.631
  91  1308.035
  92  1422.645
  93  1374.413
  94  1378.389
  95  1226.958
  96  1755.276
  97  1809.827
  98  1333.195
  99  1369.581
 100  1228.922
 101  1178.132
 102  1289.962
 103  1840.577
 104  1735.866
 105  1390.403
 106  1508.204
 107  1219.977
 108  1106.578
 109  1529.557
 110  1173.927
 111  1501.33
 112  1679.287
 113  1631.509
 114  1355.15
 115  1435.504
 116  1647.498
 117  1197.516
 118  1395.143
 119  1515.167
 120  1583.585
 121  1550.171
 122  1591.857
 123  1458.84
 124  1569.835
 125  1506.821
 126  1257.646
 127  1667.287
 128  1926.792
 129  1649.687
 130  1610.314
 131  1771.489
 132  1305.426
 133  1543.7
 134  1728.341
 135  2635.429
 136  3448.141
 137  3394.201
 138  3434.624
 139  2967.79
 140  2260.428
 141  1697.108
 142  1486.624
 143  1804.329
 144  1687.017
 145  1628.786
 146  1915.5
 147  1413.442
 148  1393.161
 149  1214.368
 150  1503.552
 151  1481.137
 152  1689.251
 153  1788.992
 154  1791.253
 155  1528.727
 156  1171.464
 157  1235.948
 158  1100.798
 159  1279.754
 160  1637.536
 161  1914.132
 162  1527.752
 163  1339.368
 164  1184.61
 165  1291.356
 166  1529.368
 167  1335.821
 168  1760.294
 169  1845.097
 170  1715.037
 171  1341.96
 172  1331.318
 173  1163.482
 174  946.0018
 175  1114.656
 176  1564.901
 177  1383.273
 178  1687.469
 179  1569.936
 180  1162.658
 181  1235.978
 182  1502.872
 183  1489.058
 184  1284.869
 185  1825.373
 186  1739.251
 187  2003.941
 188  1107.733
 189  1245.865
 190  1411.364
 191  1122.166
 192  1538.018
 193  1616.546
 194  1604.261
 195  1411.525
 196  1324.266
 197  1422.959
 198  1608.004
 199  1372.515
 200  1465.728
 201  1385.566
 202  1937.505
 203  1986.252
 204  1703.659
 205  1629.913
 206  1276.223
 207  1289.675
 208  1166.15
 209  1336.161
 210  1632.913
 211  1766.443
 212  1472.672
 213  1213.595
 214  1321.076
 215  1329.807
 216  1138.2
 217  1633.598
 218  1570.273
 219  1889.36
 220  1693.923
 221  1197.448
 222  1142.278
 223  979.8185
 224  1261.721
 225  1387.432
 226  1795.447
 227  2046.353
 228  1958.803
 229  1459.909
 230  1130.691
 231  1439.604
 232  1387.607
 233  1591.508
 234  1754.234
 235  1807.352
 236  1734.281
 237  1652.44
 238  1303.584
 239  1283.215
 240  1121.525
 241  667.4546
 242  1138.296
 243  1663.184
 244  1567.638
 245  1295.336
 246  1278.204
 247  1296.644
 248  1471.159
 249  1433.857
 250  1352.473
 251  1363.036
 252  1513.202
 253  1401.416
 254  1502.908
 255  1225.337
 256  986.2383
 257  859.1096
 258  1157.123
 259  1444.772
 260  1644.376
 261  2142.744
 262  1288.069
 263  1221.926
 264  891.3831
 265  1408.071
 266  1570.559
 267  1572.884
 268  1684.597
 269  1496.846
 270  1492.255
 271  1232.364
 272  1375.306
 273  1234.156
 274  1487.797
 275  1708.469
 276  1975.833
 277  1191.171
 278  933.5948
 279  1025.932
 280  1233.199
 281  1511.616
 282  1591.059
 283  1811.603
 284  1682.008
 285  1678.806
 286  1672.038
 287  1620.823
 288  1289.221
 289  1061.36
 290  1262.654
 291  1480.74
 292  1409.209
 293  1857.455
 294  1546.301
 295  1336.654
 296  1536.544
 297  1502.757
 298  1205.017
 299  1024.491
 300  1609.927
 301  1684.35
 302  1799.634
 303  1114.455
 304  1101.603
 305  1138.292
 306  1100.604
 307  1097.596
 308  1263.84
 309  1790.942
 310  1731.504
 311  1634.763
 312  1249.49
 313  625.3047
 314  1067.574
 315  1519.083
 316  1344.016
 317  1645.954
 318  1870.921
 319  2099.328
 320  1681.689
 321  1539.757
 322  1318.467
 323  1142.455
 324  1166.263
 325  1583.654
 326  1640.711
 327  1488.208
 328  1573.45
 329  1469.284
 330  1511.345
 331  996.6567
 332  1448.952
 333  1548.369
 334  1314.425
 335  1408.605
 336  1237.237
 337  1641.476
 338  1350.042
 339  1288.466
 340  1442.363
 341  1594.015
 342  1624.6
 343  1166.434
 344  1303.447
 345  1091.103
 346  1168.39
 347  1203.128
 348  1410.848
 349  1478.666
 350  1746.261
 351  1776.27
 352  1939.664
 353  1431.59
 354  1033.36
 355  1245.607
 356  1370.295
 357  1695.177
 358  1821.733
 359  1946.435
 360  1846.315
 361  1175.754
 362  852.2397
 363  943.5054
 364  1044.692
 365  1503.338
 366  1642.147
 367  1590.232
 368  1298.329
 369  1101.08
 370  1224.297
 371  1418.775
 372  1061.706
 373  717.2175
 374  1356.402
 375  1714.51
 376  1893.635
 377  1511.021
 378  1229.068
 379  1191.656
 380  1204.542
 381  1056.734
 382  1120.893
 383  1234.274
 384  1405.997
 385  1707.476
 386  1439.623
 387  1257.982
 388  1036.07
 389  1007.677
 390  1013.73
 391  1579.403
 392  1761.45
 393  1718.531
 394  2164.036
 395  1497.965
 396  849.916
 397  902.2276
 398  1065.231
 399  1215.312
 400  1498.982
 401  1867.993
 402  1788.1
 403  1203.286
 404  1368.692
 405  633.3459
 406  998.5732
 407  1425.534
 408  1604.576
 409  1612.933
 410  1171.615
 411  1302.711
 412  1347.136
 413  1300.57
 414  1076.592
 415  1512.653
 416  1765.339
 417  1332.417
 418  1455.164
 419  1437.75
 420  1131.667
 421  1326.972
 422  1284.757
 423  1051.812
 424  1770.192
 425  1672.339
 426  1665.318
 427  1451.671
 428  1435.578
 429  1053.855
 430  869.7031
 431  1324.567
 432  1608.755
 433  1709.199
 434  1754.418
 435  1067.264
 436  1440.562
 437  1451.566
 438  1265.209
 439  1495.106
 440  1427.652
 441  1603.221
 442  1532.518
 443  1777.964
 444  1089.688
 445  1354.401
 446  1270.119
 447  1299.841
 448  1530.787
 449  1556.277
 450  1574.234
 451  1000.549
 452  1210.049
 453  1177.195
 454  1231.163
 455  1128.938
 456  1588.559
 457  1637.998
 458  1338.929
 459  1181.81
 460  1261.428
 461  1452.566
 462  1102.121
 463  1254.158
 464  1279.194
 465  1623.995
 466  2417.825
 467  2152.335
 468  1841.457
 469  1414.357
 470  1201.017
 471  1211.117
 472  887.8539
 473  1131.481
 474  1622.515
 475  1766.485
 476  1451.507
 477  1252.4
 478  1261.354
 479  1111.602
 480  1234.683
 481  1397.438
 482  2073.089
 483  2066.641
 484  1730.291
 485  1795.851
 486  1491.522
 487  1372.411
 488  1178.208
 489  1379.605
 490  1672.861
 491  1647.268
 492  1691.718
 493  1617.358
 494  1150.936
 495  1017.023
 496  1241.865
 497  1283.329
 498  1575.591
 499  1794.037
 500  1762.727
 501  1862.906
 502  1621.181
 503  1686.556
 504  1681.321
 505  1639.714
 506  1488.786
 507  1435.735
 508  1836.231
 509  1799.265
 510  1793.747
 511  1758.993
