# Input file       =  1182390233.108874_cleaned.dat
# Candidate        =  PSR_0332+5434
# Telescope        =  AR
# Epoch_topo       =  57929.072362371226
# Epoch_bary       =  N/A
# T_sample         =  0.002
# Data Folded      =  7143424
# Data Avg         =  0.103597473648992
# Data StdDev      =  4.05642353412313 
# Profile Bins     =  1024
# Profile Avg      =  722.685942627402 
# Profile StdDev   =  338.80244020963  
# Reduced chi-sqr  =  0.852
# Prob(Noise)      <  1   (~0.0 sigma)
# P_topo (ms)      =  714.494177212641  +/- 3.75e-05
# P'_topo (s/s)    =  -0                +/- 2.03e-11
# P''_topo (s/s^2) =  0                 +/- 9.21e-15
# P_bary (ms)      =  N/A
# P'_bary (s/s)    =  N/A
# P''_bary (s/s^2) =  N/A
# P_orb (s)        =  N/A
# asin(i)/c (s)    =  N/A
# eccentricity     =  N/A
# w (rad)          =  N/A
# T_peri           =  N/A
######################################################
   0  587.175
   1  523.3666
   2  595.1689
   3  632.4246
   4  754.0306
   5  859.0548
   6  848.5634
   7  763.0178
   8  688.9321
   9  817.4145
  10  823.2388
  11  723.533
  12  686.5514
  13  836.1881
  14  795.2427
  15  634.9253
  16  406.5093
  17  606.1365
  18  659.0521
  19  831.6589
  20  801.6043
  21  715.3081
  22  669.6929
  23  627.4632
  24  726.9733
  25  680.5533
  26  582.7778
  27  660.5353
  28  830.7818
  29  847.1586
  30  690.2024
  31  609.4844
  32  678.7775
  33  616.8634
  34  716.627
  35  759.6158
  36  819.408
  37  784.2302
  38  804.7053
  39  781.3606
  40  597.0659
  41  546.0974
  42  618.6221
  43  725.4707
  44  559.6166
  45  479.8315
  46  554.58
  47  648.6118
  48  606.1323
  49  595.4016
  50  691.5414
  51  744.0936
  52  720.3114
  53  800.9637
  54  904.9969
  55  860.4495
  56  901.0244
  57  861.8922
  58  1037.433
  59  871.4019
  60  754.3109
  61  609.1154
  62  516.7228
  63  512.4127
  64  562.6796
  65  726.9077
  66  693.7465
  67  692.4382
  68  796.2051
  69  948.5193
  70  937.879
  71  875.8603
  72  959.1053
  73  1021.086
  74  973.0581
  75  791.1995
  76  611.5651
  77  497.7684
  78  425.7352
  79  425.049
  80  492.1801
  81  450.7751
  82  509.196
  83  577.1165
  84  755.8933
  85  793.1476
  86  805.5115
  87  839.78
  88  854.6466
  89  703.7416
  90  681.5922
  91  578.533
  92  612.8217
  93  475.8969
  94  584.8615
  95  689.8788
  96  731.848
  97  680.3658
  98  536.7515
  99  462.0342
 100  355.8328
 101  393.1991
 102  626.5123
 103  818.5165
 104  865.8994
 105  864.2906
 106  955.045
 107  924.0145
 108  789.0461
 109  667.2363
 110  633.7095
 111  567.6912
 112  603.5784
 113  613.0789
 114  663.1887
 115  491.7453
 116  501.4422
 117  581.345
 118  549.8423
 119  571.0059
 120  525.2187
 121  736.3829
 122  660.5588
 123  766.1389
 124  858.059
 125  855.4172
 126  777.5124
 127  603.3181
 128  635.2468
 129  610.2523
 130  515.4943
 131  510.8027
 132  481.8989
 133  530.296
 134  502.8431
 135  561.6656
 136  761.8014
 137  859.4469
 138  915.5294
 139  818.8609
 140  862.921
 141  905.6543
 142  1083.798
 143  1113.56
 144  856.6678
 145  475.1747
 146  419.5597
 147  440.9753
 148  489.7205
 149  397.9456
 150  535.1675
 151  535.7887
 152  628.4844
 153  641.8211
 154  730.2476
 155  811.334
 156  893.9122
 157  1040.316
 158  1004.28
 159  673.5129
 160  590.7377
 161  632.9606
 162  770.1459
 163  505.7988
 164  314.1741
 165  315.5715
 166  470.1322
 167  582.6264
 168  706.5613
 169  797.4562
 170  807.2847
 171  781.5955
 172  836.7526
 173  745.639
 174  615.5543
 175  518.86
 176  611.6176
 177  737.7853
 178  671.5706
 179  666.4678
 180  632.7173
 181  651.6248
 182  553.182
 183  507.8735
 184  732.5311
 185  849.4923
 186  938.5121
 187  804.2272
 188  637.3713
 189  664.5468
 190  671.717
 191  845.3109
 192  731.0738
 193  645.6659
 194  553.7676
 195  581.672
 196  642.2787
 197  699.5394
 198  668.3802
 199  576.2361
 200  484.8795
 201  595.55
 202  879.6705
 203  970.9047
 204  855.0767
 205  769.3678
 206  828.0602
 207  835.3792
 208  762.5503
 209  678.0149
 210  750.7037
 211  681.176
 212  570.0302
 213  422.3951
 214  434.9492
 215  443.7732
 216  678.1683
 217  720.1356
 218  838.3651
 219  766.5553
 220  833.251
 221  906.6997
 222  889.4099
 223  800.3546
 224  488.6571
 225  580.4931
 226  680.5021
 227  792.4957
 228  734.2104
 229  699.3123
 230  621.5016
 231  615.1643
 232  764.4243
 233  755.9359
 234  693.1026
 235  727.7584
 236  837.5995
 237  789.7159
 238  732.7065
 239  838.043
 240  941.9406
 241  768.3657
 242  527.8412
 243  553.7878
 244  669.7276
 245  700.2334
 246  619.1294
 247  650.8496
 248  637.7379
 249  655.5378
 250  752.01
 251  810.8428
 252  823.2277
 253  694.7829
 254  829.6074
 255  745.3032
 256  523.8606
 257  432.4913
 258  558.4201
 259  715.8822
 260  565.2188
 261  576.1794
 262  665.6871
 263  558.0112
 264  592.4209
 265  560.1124
 266  837.0085
 267  816.0555
 268  822.9916
 269  795.7617
 270  718.8504
 271  546.8933
 272  561.3195
 273  669.1066
 274  649.3246
 275  584.6998
 276  716.6356
 277  746.0829
 278  562.9681
 279  503.8121
 280  570.1147
 281  744.043
 282  617.5826
 283  634.4222
 284  742.391
 285  1011.122
 286  1211.392
 287  1211.764
 288  1120.455
 289  960.2966
 290  902.6945
 291  944.227
 292  759.0195
 293  557.7755
 294  534.3707
 295  731.3903
 296  684.858
 297  427.9421
 298  403.2449
 299  515.2163
 300  603.0125
 301  543.7581
 302  817.4913
 303  879.8714
 304  906.3022
 305  839.2308
 306  770.475
 307  650.0857
 308  593.7856
 309  675.045
 310  682.3972
 311  523.8105
 312  521.1114
 313  601.0646
 314  659.124
 315  583.5684
 316  621.4486
 317  851.9324
 318  1048.17
 319  1081.501
 320  1076.204
 321  943.2209
 322  861.569
 323  844.2429
 324  903.3586
 325  902.9186
 326  722.661
 327  746.6257
 328  665.2982
 329  676.7584
 330  575.0511
 331  596.4306
 332  691.7822
 333  711.2343
 334  806.3215
 335  912.7375
 336  841.1572
 337  750.0554
 338  795.8346
 339  970.749
 340  854.4401
 341  671.4361
 342  576.2221
 343  552.8016
 344  530.6834
 345  484.5467
 346  592.5604
 347  682.8819
 348  635.7446
 349  633.372
 350  720.7571
 351  953.7761
 352  923.4078
 353  828.8795
 354  859.4472
 355  915.0502
 356  971.0784
 357  883.7663
 358  784.8454
 359  819.3094
 360  817.899
 361  886.2075
 362  819.337
 363  864.4043
 364  823.049
 365  810.7411
 366  769.9396
 367  678.844
 368  700.7065
 369  774.2699
 370  954.9441
 371  905.8099
 372  906.4383
 373  894.5175
 374  913.1255
 375  871.3135
 376  861.0115
 377  906.1088
 378  776.7693
 379  567.4406
 380  525.0828
 381  563.9019
 382  591.8797
 383  669.823
 384  697.7433
 385  786.9633
 386  712.8519
 387  783.8373
 388  891.4587
 389  834.614
 390  762.7015
 391  586.8754
 392  649.3485
 393  633.9148
 394  506.562
 395  505.2702
 396  629.0149
 397  726.7708
 398  714.1429
 399  836.9853
 400  793.819
 401  635.9194
 402  634.7272
 403  759.6271
 404  767.6346
 405  538.1086
 406  574.373
 407  602.8134
 408  494.4307
 409  376.1108
 410  482.0349
 411  556.7494
 412  605.2344
 413  601.7005
 414  761.3738
 415  661.7498
 416  696.3572
 417  693.051
 418  751.4837
 419  733.8854
 420  767.9901
 421  811.869
 422  745.4599
 423  570.5034
 424  683.0717
 425  672.1729
 426  526.9193
 427  377.0256
 428  603.3598
 429  886.394
 430  771.0645
 431  682.9061
 432  661.2013
 433  767.382
 434  744.0162
 435  772.4701
 436  900.3276
 437  838.5905
 438  593.9741
 439  463.2852
 440  452.4968
 441  389.7925
 442  299.5266
 443  433.2554
 444  544.0236
 445  496.2129
 446  557.0067
 447  681.5156
 448  671.0015
 449  576.8305
 450  622.9211
 451  883.0016
 452  856.7474
 453  889.9695
 454  763.6039
 455  747.5034
 456  651.4918
 457  760.9973
 458  832.4777
 459  752.6688
 460  648.0982
 461  637.8525
 462  760.5582
 463  647.5512
 464  605.3583
 465  730.3315
 466  874.7037
 467  881.5562
 468  856.6537
 469  767.3611
 470  817.1733
 471  806.9936
 472  938.884
 473  837.4952
 474  723.0959
 475  651.8436
 476  682.9398
 477  647.0739
 478  547.4333
 479  482.9702
 480  464.3858
 481  575.188
 482  786.6562
 483  849.3817
 484  902.2316
 485  922.6293
 486  1040.089
 487  1163.205
 488  1044.057
 489  827.6277
 490  654.4607
 491  526.2356
 492  505.1893
 493  397.1638
 494  482.9835
 495  446.1162
 496  504.0323
 497  543.7789
 498  601.874
 499  724.5161
 500  888.7927
 501  884.3934
 502  910.8756
 503  890.468
 504  844.397
 505  669.0538
 506  575.4811
 507  566.584
 508  379.657
 509  337.8851
 510  336.9947
 511  602.8554
 512  647.8241
 513  601.937
 514  619.737
 515  592.426
 516  787.9897
 517  850.4126
 518  1010.886
 519  897.8077
 520  843.9344
 521  795.7736
 522  790.1483
 523  723.3386
 524  691.8576
 525  828.4718
 526  882.5887
 527  717.7004
 528  593.5251
 529  474.6173
 530  455.7878
 531  488.0845
 532  649.2694
 533  743.912
 534  652.179
 535  679.8642
 536  695.5577
 537  728.8565
 538  606.6721
 539  609.1517
 540  698.2856
 541  756.4203
 542  691.3521
 543  677.6314
 544  747.0757
 545  698.3963
 546  553.2028
 547  659.7421
 548  841.7436
 549  878.7026
 550  754.1881
 551  667.7325
 552  690.0975
 553  599.1305
 554  611.4719
 555  748.8303
 556  618.7368
 557  615.0438
 558  626.7771
 559  810.5629
 560  677.3982
 561  584.6791
 562  689.1828
 563  764.348
 564  688.1223
 565  663.8074
 566  685.4938
 567  687.5414
 568  567.2556
 569  672.2078
 570  869.4758
 571  954.4691
 572  956.6543
 573  803.546
 574  714.9736
 575  592.9738
 576  667.4944
 577  701.8691
 578  645.8403
 579  584.2441
 580  550.8867
 581  635.6058
 582  592.8344
 583  724.722
 584  891.6346
 585  1001.975
 586  923.9765
 587  731.564
 588  651.7587
 589  755.3339
 590  751.5638
 591  751.1389
 592  630.2039
 593  536.0367
 594  480.3838
 595  711.9932
 596  761.3893
 597  729.6226
 598  519.1628
 599  652.478
 600  764.4642
 601  768.7355
 602  789.075
 603  913.9216
 604  840.343
 605  751.785
 606  629.4799
 607  733.685
 608  700.2122
 609  725.6076
 610  842.9446
 611  771.1768
 612  603.8122
 613  576.4365
 614  629.129
 615  812.4622
 616  748.9597
 617  794.1591
 618  820.895
 619  732.0564
 620  767.005
 621  800.9322
 622  853.9755
 623  706.2714
 624  672.4521
 625  836.824
 626  775.1293
 627  774.3289
 628  762.647
 629  730.0573
 630  662.2999
 631  561.4204
 632  805.8094
 633  948.3177
 634  978.6793
 635  950.2863
 636  812.3065
 637  784.3912
 638  781.8625
 639  883.0441
 640  941.108
 641  778.7451
 642  647.1033
 643  634.7755
 644  754.4157
 645  819.5988
 646  856.7986
 647  920.7128
 648  1224.248
 649  1598.075
 650  1739.836
 651  1718.28
 652  1679.728
 653  1717.501
 654  1709.344
 655  1699.2
 656  1548.82
 657  1298.018
 658  1109.828
 659  1120.821
 660  877.5121
 661  705.4177
 662  635.6346
 663  933.153
 664  937.3497
 665  837.2929
 666  842.0543
 667  849.3733
 668  832.6741
 669  829.6431
 670  971.3461
 671  898.1401
 672  691.4449
 673  696.4077
 674  710.4097
 675  650.3797
 676  615.0203
 677  651.2374
 678  768.4592
 679  706.9416
 680  701.5998
 681  810.8232
 682  817.6837
 683  886.497
 684  827.4293
 685  1007.375
 686  926.3007
 687  806.2758
 688  795.8151
 689  708.2418
 690  634.5303
 691  508.8239
 692  594.6674
 693  656.1562
 694  539.71
 695  546.0813
 696  618.5961
 697  705.7579
 698  780.0428
 699  901.6432
 700  955.3918
 701  921.02
 702  775.0576
 703  751.1373
 704  666.8309
 705  642.7227
 706  577.2125
 707  614.913
 708  610.3185
 709  705.0381
 710  760.4136
 711  768.5751
 712  641.0689
 713  674.629
 714  832.0043
 715  993.8365
 716  926.5801
 717  901.7211
 718  865.6039
 719  827.5716
 720  693.7712
 721  596.6189
 722  676.9336
 723  657.4272
 724  638.9946
 725  486.7608
 726  501.7165
 727  443.7814
 728  540.9915
 729  644.6759
 730  802.2668
 731  753.9771
 732  693.1056
 733  719.1554
 734  848.4141
 735  843.3181
 736  805.3129
 737  735.3062
 738  626.2877
 739  476.3817
 740  578.1169
 741  745.8774
 742  740.1295
 743  744.6523
 744  801.3692
 745  669.6126
 746  643.8949
 747  668.0034
 748  973.363
 749  858.228
 750  837.5116
 751  964.8679
 752  1018.685
 753  915.7581
 754  534.7374
 755  530.7332
 756  613.1638
 757  653.2541
 758  730.4162
 759  669.3871
 760  580.8085
 761  493.7818
 762  714.3196
 763  930.1894
 764  821.0546
 765  747.7198
 766  813.3708
 767  817.5318
 768  716.7721
 769  645.1869
 770  677.4849
 771  631.6341
 772  660.3728
 773  827.6214
 774  877.8434
 775  701.254
 776  632.8182
 777  760.1575
 778  762.1988
 779  661.6041
 780  646.3465
 781  813.7255
 782  973.3569
 783  971.9194
 784  972.4009
 785  1012.845
 786  860.6227
 787  808.2727
 788  808.2651
 789  825.2102
 790  671.8495
 791  548.1895
 792  678.792
 793  627.4118
 794  595.5497
 795  538.0619
 796  673.5928
 797  724.1082
 798  792.1484
 799  854.2758
 800  884.1322
 801  900.2088
 802  732.9666
 803  691.3374
 804  625.3175
 805  559.3312
 806  643.6123
 807  718.0298
 808  760.2227
 809  513.3703
 810  488.629
 811  719.4147
 812  806.748
 813  832.2967
 814  743.8048
 815  856.6411
 816  927.1812
 817  957.0627
 818  876.3312
 819  748.331
 820  559.2457
 821  645.4677
 822  567.0666
 823  543.4641
 824  443.6151
 825  558.6017
 826  653.6699
 827  602.3062
 828  639.6747
 829  791.8527
 830  896.377
 831  941.1411
 832  976.8345
 833  1087.326
 834  1041.451
 835  854.8172
 836  753.3996
 837  659.2851
 838  594.0796
 839  520.6267
 840  735.6517
 841  742.9437
 842  711.4812
 843  682.8094
 844  771.9282
 845  863.8331
 846  839.967
 847  939.5389
 848  952.1395
 849  842.4073
 850  874.5797
 851  842.7684
 852  855.4886
 853  747.1711
 854  647.9666
 855  652.7418
 856  669.4869
 857  620.8865
 858  608.1497
 859  443.4383
 860  328.4801
 861  327.4704
 862  478.7922
 863  766.843
 864  828.1943
 865  859.9293
 866  763.0919
 867  775.5034
 868  642.7952
 869  610.2516
 870  617.3517
 871  698.4628
 872  663.8323
 873  615.205
 874  703.0428
 875  785.3661
 876  720.3798
 877  694.2499
 878  640.8246
 879  704.6968
 880  601.0617
 881  807.5048
 882  762.7786
 883  716.0163
 884  670.0627
 885  759.1575
 886  813.09
 887  633.7662
 888  613.2529
 889  610.7566
 890  540.1462
 891  405.4786
 892  400.8319
 893  477.6542
 894  602.5714
 895  610.5728
 896  734.699
 897  721.3284
 898  766.2393
 899  948.6282
 900  1114.876
 901  967.8611
 902  684.1122
 903  554.2844
 904  697.6159
 905  482.7071
 906  489.2754
 907  444.9862
 908  718.3338
 909  714.5094
 910  759.6934
 911  823.2675
 912  797.7632
 913  796.6788
 914  782.7938
 915  933.7902
 916  757.7357
 917  675.5934
 918  715.0034
 919  787.961
 920  657.845
 921  516.2392
 922  629.4694
 923  774.9762
 924  594.6998
 925  634.8341
 926  700.785
 927  828.5136
 928  804.6597
 929  970.7706
 930  1055.259
 931  824.4078
 932  654.3865
 933  501.2327
 934  506.7134
 935  393.8794
 936  460.8873
 937  639.3792
 938  590.6041
 939  646.2058
 940  695.5599
 941  868.9388
 942  819.6642
 943  716.7255
 944  924.2004
 945  928.6633
 946  898.2531
 947  753.0483
 948  815.3082
 949  878.3005
 950  842.3911
 951  849.774
 952  872.3663
 953  695.7902
 954  685.2133
 955  584.8367
 956  556.181
 957  455.6546
 958  556.1497
 959  827.2207
 960  787.936
 961  609.1394
 962  663.536
 963  854.0724
 964  967.0289
 965  851.8068
 966  836.6708
 967  683.6008
 968  659.5287
 969  676.4389
 970  728.9222
 971  845.3479
 972  706.5132
 973  761.6822
 974  643.0692
 975  500.9166
 976  501.5328
 977  573.4033
 978  853.4357
 979  764.6374
 980  820.655
 981  927.0938
 982  907.756
 983  831.9313
 984  533.3431
 985  533.3093
 986  540.6004
 987  571.9804
 988  591.9692
 989  534.4019
 990  546.3239
 991  538.9005
 992  559.1401
 993  558.0347
 994  586.7772
 995  738.0554
 996  900.0159
 997  925.9816
 998  879.803
 999  802.9243
1000  821.84
1001  823.2208
1002  653.5813
1003  487.6629
1004  337.2612
1005  278.7484
1006  484.0219
1007  694.696
1008  841.1365
1009  642.0984
1010  672.4013
1011  718.8546
1012  858.6772
1013  772.9236
1014  905.6779
1015  1040.355
1016  1092.97
1017  975.2538
1018  868.5013
1019  798.3402
1020  798.0047
1021  704.6475
1022  704.7484
1023  590.8123
