# Input file       =  1182390233.108874_cleaned.dat
# Candidate        =  PSR_0332+5434
# Telescope        =  AR
# Epoch_topo       =  57929.072362371226
# Epoch_bary       =  N/A
# T_sample         =  0.002
# Data Folded      =  7143424
# Data Avg         =  0.103597473648992
# Data StdDev      =  4.05642353412313 
# Profile Bins     =  512
# Profile Avg      =  1445.37188517854 
# Profile StdDev   =  479.139005909558 
# Reduced chi-sqr  =  0.895
# Prob(Noise)      <  0.958   (~0.0 sigma)
# P_topo (ms)      =  714.494177101278  +/- 3.99e-05
# P'_topo (s/s)    =  -0                +/- 2.16e-11
# P''_topo (s/s^2) =  0                 +/- 9.82e-15
# P_bary (ms)      =  N/A
# P'_bary (s/s)    =  N/A
# P''_bary (s/s^2) =  N/A
# P_orb (s)        =  N/A
# asin(i)/c (s)    =  N/A
# eccentricity     =  N/A
# w (rad)          =  N/A
# T_peri           =  N/A
######################################################
   0  1150.304
   1  1133.557
   2  1535.964
   3  1676.503
   4  1456.11
   5  1591.118
   6  1448.966
   7  1566.946
   8  999.9849
   9  1389.689
  10  1583.145
  11  1336.325
  12  1413.227
  13  1216.508
  14  1610.102
  15  1410.654
  16  1285.605
  17  1398.385
  18  1588.317
  19  1634.268
  20  1221.416
  21  1255.706
  22  1140.968
  23  1139.737
  24  1210.221
  25  1372.825
  26  1461.227
  27  1739.343
  28  1781.03
  29  1933.493
  30  1503.068
  31  1058.93
  32  1174.049
  33  1389.987
  34  1627.255
  35  1826.516
  36  1934.806
  37  1896.733
  38  1254.997
  39  869.4521
  40  937.1044
  41  1008.292
  42  1454.274
  43  1622.358
  44  1613.697
  45  1341.864
  46  1138.307
  47  1155.624
  48  1421.508
  49  1125.483
  50  719.8514
  51  1262.495
  52  1688.86
  53  1887.65
  54  1576.378
  55  1262.813
  56  1161.358
  57  1249.914
  58  1016.379
  59  1144.584
  60  1173.096
  61  1400.588
  62  1696.117
  63  1511.407
  64  1257.815
  65  1056.978
  66  1005.132
  67  994.8121
  68  1520.082
  69  1753.582
  70  1705.239
  71  2100.855
  72  1679.787
  73  847.371
  74  913.6567
  75  1029.206
  76  1191.924
  77  1446.035
  78  1796.386
  79  1911.665
  80  1185.064
  81  1420
  82  676.4626
  83  932.7515
  84  1364.881
  85  1618.862
  86  1609.542
  87  1242.711
  88  1226.609
  89  1368.069
  90  1316.854
  91  1121.347
  92  1421.027
  93  1774.389
  94  1368.411
  95  1396.075
  96  1505.624
  97  1130.46
  98  1297.417
  99  1325.817
 100  1048.574
 101  1667.676
 102  1733.842
 103  1648.691
 104  1496.06
 105  1425.654
 106  1135.011
 107  848.546
 108  1246.376
 109  1601.499
 110  1667.932
 111  1799.319
 112  1108.279
 113  1387.857
 114  1477.918
 115  1296.134
 116  1461.251
 117  1428.832
 118  1591.236
 119  1510.294
 120  1803.792
 121  1148.9
 122  1308.807
 123  1285.73
 124  1302.538
 125  1476.908
 126  1607.366
 127  1553.61
 128  1074.885
 129  1129.455
 130  1221.834
 131  1239.198
 132  1127.45
 133  1509.833
 134  1653.989
 135  1404.521
 136  1135.469
 137  1301.871
 138  1408.381
 139  1154.316
 140  1191.905
 141  1311.184
 142  1516.176
 143  2387.148
 144  2210.294
 145  1837.567
 146  1523.054
 147  1140.992
 148  1310.836
 149  869.2142
 150  1099.534
 151  1573.296
 152  1751.787
 153  1502.983
 154  1244.477
 155  1307.332
 156  1082.13
 157  1255.119
 158  1296.798
 159  2011.089
 160  2128.422
 161  1761.194
 162  1768.565
 163  1528.981
 164  1395.729
 165  1183.318
 166  1360.699
 167  1613.431
 168  1704.597
 169  1618.167
 170  1713.547
 171  1160.019
 172  1048.545
 173  1189.776
 174  1300.78
 175  1488.321
 176  1822.307
 177  1741.805
 178  1882.645
 179  1628.313
 180  1671.108
 181  1695.243
 182  1633.455
 183  1547.188
 184  1388.792
 185  1820.179
 186  1789.696
 187  1806.539
 188  1737.838
 189  1550.387
 190  1097.775
 191  1161.196
 192  1448.987
 193  1478.627
 194  1730.448
 195  1461.753
 196  1278.831
 197  1041.84
 198  1260.198
 199  1474.357
 200  1582.215
 201  1301.413
 202  1432.791
 203  1127.852
 204  977.3378
 205  944.6489
 206  1194.255
 207  1416.897
 208  1351.593
 209  1469.361
 210  1523.607
 211  1434.813
 212  1321.929
 213  1048.199
 214  1220.249
 215  1598.358
 216  1327.077
 217  1521.252
 218  1757.59
 219  1224.013
 220  898.6005
 221  662.8918
 222  1030.546
 223  1119.549
 224  1339.017
 225  1304.755
 226  1796.059
 227  1568.445
 228  1387.86
 229  1619.142
 230  1326.759
 231  1410.478
 232  1284.998
 233  1702.974
 234  1670.258
 235  1574.166
 236  1790.701
 237  1461.374
 238  1326.078
 239  1134.761
 240  942.2083
 241  1541.972
 242  1772.111
 243  2091.301
 244  2051.759
 245  1339.873
 246  929.1565
 247  916.2436
 248  981.9998
 249  1238.861
 250  1706.268
 251  1797.021
 252  1651.396
 253  1169.699
 254  849.1526
 255  770.6086
 256  1286.97
 257  1177.631
 258  1529.486
 259  1909.172
 260  1660.595
 261  1537.106
 262  1450.661
 263  1689.094
 264  1187.226
 265  920.4386
 266  1305.996
 267  1357.741
 268  1385.246
 269  1266.809
 270  1401.695
 271  1417.844
 272  1414.468
 273  1196.246
 274  1631.712
 275  1552.27
 276  1341.019
 277  1264.086
 278  1309.904
 279  1339.345
 280  1365.72
 281  1377.998
 282  1396.751
 283  1363.749
 284  1234.982
 285  1696.962
 286  1846.638
 287  1381.391
 288  1347.299
 289  1242.365
 290  1175.612
 291  1256.539
 292  1783.854
 293  1799.881
 294  1386.836
 295  1508.858
 296  1284.772
 297  1033.796
 298  1550.018
 299  1183.463
 300  1484.671
 301  1620.719
 302  1676.479
 303  1361.846
 304  1445.624
 305  1649.148
 306  1230.181
 307  1343.244
 308  1506.121
 309  1611.567
 310  1520.457
 311  1637.254
 312  1413.144
 313  1583.19
 314  1514.332
 315  1317.117
 316  1553.627
 317  1934.659
 318  1688.447
 319  1567.85
 320  1812.066
 321  1345.828
 322  1495.575
 323  1708.254
 324  2455.838
 325  3409.745
 326  3391.239
 327  3456.359
 328  3084.962
 329  2275.259
 330  1820.943
 331  1400.392
 332  1856.076
 333  1678.757
 334  1626.072
 335  1912.703
 336  1457.215
 337  1406.982
 338  1208.513
 339  1493.722
 340  1447.921
 341  1677.443
 342  1750.564
 343  1854.231
 344  1551.406
 345  1218.671
 346  1194.937
 347  1132.181
 348  1227.966
 349  1594.948
 350  1910.527
 351  1566.749
 352  1374.961
 353  1177.769
 354  1277.904
 355  1507.013
 356  1371.239
 357  1672.269
 358  1879.169
 359  1729.271
 360  1403.746
 361  1305.153
 362  1221.747
 363  951.8807
 364  1062.978
 365  1526.289
 366  1391.488
 367  1666.923
 368  1579.127
 369  1247.876
 370  1154.397
 371  1493.609
 372  1522.706
 373  1291.566
 374  1772.19
 375  1711.303
 376  2021.375
 377  1199.354
 378  1210.625
 379  1408.569
 380  1187.545
 381  1404.952
 382  1668.232
 383  1595.204
 384  1456.02
 385  1321.214
 386  1370.054
 387  1654.142
 388  1346.721
 389  1492.539
 390  1336.709
 391  1910.928
 392  1967.884
 393  1760.409
 394  1628.362
 395  1327.92
 396  1281.275
 397  1187.826
 398  1289.667
 399  1597.844
 400  1760.413
 401  1529.49
 402  1235.336
 403  1279.276
 404  1400.817
 405  1083.759
 406  1579.985
 407  1573.229
 408  1865.409
 409  1769.4
 410  1208.694
 411  1157.305
 412  976.0291
 413  1267.163
 414  1321.971
 415  1764.418
 416  2013.163
 417  2023.35
 418  1519.322
 419  1147.272
 420  1387.422
 421  1397.532
 422  1545.443
 423  1730.664
 424  1836.356
 425  1736.024
 426  1677.711
 427  1325.379
 428  1291.422
 429  1169.372
 430  681.6811
 431  1035.835
 432  1638.682
 433  1589.363
 434  1344.366
 435  1246.174
 436  1339.275
 437  1416.682
 438  1449.959
 439  1358.947
 440  1324.707
 441  1533.382
 442  1405.657
 443  1542.851
 444  1226.802
 445  1043.01
 446  827.5247
 447  1109.095
 448  1446.122
 449  1564.397
 450  2158.067
 451  1382.831
 452  1246.615
 453  887.8333
 454  1348.077
 455  1530.593
 456  1594.774
 457  1642.945
 458  1560.683
 459  1454.731
 460  1319.707
 461  1300.595
 462  1275.3
 463  1430.449
 464  1664.003
 465  2039.365
 466  1267.936
 467  974.1915
 468  925.8456
 469  1240.635
 470  1451.835
 471  1650.613
 472  1747.21
 473  1738.548
 474  1631.831
 475  1685.865
 476  1669.658
 477  1311.284
 478  1094.343
 479  1157.406
 480  1547.984
 481  1321.744
 482  1883.678
 483  1576.916
 484  1337.953
 485  1490.34
 486  1531.598
 487  1269.694
 488  1001.759
 489  1575.534
 490  1627.92
 491  1831.597
 492  1181.151
 493  1101.226
 494  1150.969
 495  1102.273
 496  1083.552
 497  1215.937
 498  1749.289
 499  1770.049
 500  1618.368
 501  1358.409
 502  663.6856
 503  958.1986
 504  1519.636
 505  1331.514
 506  1640.352
 507  1786.631
 508  2133.286
 509  1720.15
 510  1551.753
 511  1362.762
