# Input file       =  1183869605.095054_cleaned.dat
# Candidate        =  PSR_0332+5434
# Telescope        =  AR
# Epoch_topo       =  57946.194723322384
# Epoch_bary       =  N/A
# T_sample         =  0.002
# Data Folded      =  7340032
# Data Avg         =  0.32639705854464 
# Data StdDev      =  6.16313014901236 
# Profile Bins     =  512
# Profile Avg      =  4679.50231795365 
# Profile StdDev   =  737.930286326441 
# Reduced chi-sqr  =  0.711
# Prob(Noise)      <  1   (~0.0 sigma)
# P_topo (ms)      =  714.480828348616  +/- 8.52e-05
# P'_topo (s/s)    =  -0                +/- 4.5e-11
# P''_topo (s/s^2) =  0                 +/- 1.99e-14
# P_bary (ms)      =  N/A
# P'_bary (s/s)    =  N/A
# P''_bary (s/s^2) =  N/A
# P_orb (s)        =  N/A
# asin(i)/c (s)    =  N/A
# eccentricity     =  N/A
# w (rad)          =  N/A
# T_peri           =  N/A
######################################################
   0  4667.028
   1  4583.125
   2  4904.627
   3  4807.931
   4  4744.124
   5  4795.564
   6  4625.707
   7  4705.521
   8  4766.555
   9  4688.612
  10  4182.401
  11  4610.418
  12  4833.518
  13  4522.725
  14  4858.228
  15  4917.12
  16  4466.907
  17  4355.827
  18  4576.766
  19  4327.63
  20  5083.326
  21  4990.481
  22  4962.75
  23  5021.517
  24  4888.011
  25  4909.654
  26  5670.899
  27  5643.59
  28  4953.137
  29  4793.292
  30  4350.802
  31  4101.337
  32  4763.434
  33  5037.915
  34  4228.491
  35  4338.969
  36  4164.257
  37  4085.056
  38  4515.713
  39  4877.817
  40  4589.667
  41  4813.466
  42  4679.21
  43  4749.556
  44  5071.87
  45  5671.976
  46  4972.465
  47  4145.713
  48  4465.13
  49  4997.178
  50  4605.657
  51  4351.227
  52  4087.254
  53  3150.017
  54  2974.723
  55  4493.735
  56  5226.722
  57  5022.179
  58  5102.122
  59  4312.692
  60  4554.855
  61  5199.504
  62  5760.577
  63  5628.973
  64  4912.035
  65  4396.482
  66  4031.454
  67  4602.596
  68  4527.615
  69  5080.024
  70  4383.475
  71  4064.292
  72  4302.514
  73  4430.206
  74  4881.093
  75  5165.325
  76  4821.35
  77  4985.879
  78  4462.653
  79  4855.411
  80  4984.768
  81  4944.412
  82  4556.695
  83  4577.519
  84  4360.153
  85  4771.71
  86  5464.304
  87  5011.596
  88  4739.195
  89  4534.546
  90  4517.938
  91  4836.706
  92  5364.855
  93  4983.403
  94  5142.7
  95  4436.439
  96  4193.748
  97  4405.646
  98  4458.186
  99  4377.476
 100  4585.965
 101  4502.667
 102  4283.828
 103  5039.453
 104  5164.857
 105  4920.874
 106  4604.043
 107  5044.334
 108  4790.946
 109  4743.607
 110  5036.907
 111  5196.184
 112  4776.346
 113  4743.444
 114  4712.584
 115  4745.605
 116  4950.508
 117  4942.835
 118  4586.262
 119  4819.594
 120  4083.638
 121  4192.596
 122  5319.844
 123  4863.197
 124  4307.518
 125  4647.512
 126  4509.148
 127  4018.812
 128  4575.426
 129  4819.612
 130  4936.839
 131  4597.536
 132  4856.207
 133  4862.83
 134  4792.398
 135  5013.112
 136  5037.271
 137  5414.142
 138  4838.99
 139  4487.938
 140  4409.999
 141  4720.88
 142  5179.091
 143  5333.548
 144  5148.054
 145  4959.936
 146  4964.284
 147  5091.826
 148  5065.761
 149  4816.408
 150  4688.849
 151  4141.666
 152  4017.998
 153  4448.86
 154  4778.897
 155  4776.674
 156  4702.592
 157  4532.27
 158  4785.677
 159  5011.104
 160  4938.934
 161  4910.086
 162  5069.131
 163  4872.062
 164  4779.214
 165  5174.575
 166  5111.732
 167  5163.729
 168  4919.117
 169  5028.669
 170  4501.301
 171  4941.201
 172  5098.079
 173  4780.782
 174  4261.993
 175  3873.064
 176  4555.268
 177  4507.974
 178  4169.9
 179  4342.499
 180  4272.098
 181  4302.712
 182  4410.459
 183  4710.576
 184  5130.863
 185  5070.704
 186  4994.865
 187  4776.289
 188  4416.133
 189  4095.612
 190  3599.033
 191  3849.06
 192  4491.701
 193  4944.667
 194  4551.277
 195  4764.957
 196  4862.89
 197  5386.204
 198  5451.496
 199  5289.233
 200  5379.88
 201  5129.124
 202  5166.076
 203  5284.375
 204  5395.369
 205  4915.558
 206  4883.721
 207  4532.458
 208  4615.171
 209  4948.461
 210  5218.696
 211  4994.12
 212  5332.472
 213  5665.773
 214  5406.86
 215  5701.887
 216  6087.609
 217  5825.175
 218  5301.47
 219  5061.488
 220  5384.135
 221  5509.589
 222  5612.022
 223  4598.717
 224  4558.375
 225  4730.705
 226  4476.529
 227  4242.524
 228  4453.985
 229  3977.243
 230  3730.985
 231  3777.354
 232  4129.239
 233  4900.556
 234  4517.105
 235  4404.652
 236  4083.226
 237  4242.251
 238  4460.508
 239  4378.168
 240  4424.645
 241  3868.322
 242  3938.777
 243  4360.869
 244  4601.651
 245  4503.136
 246  4806.861
 247  4747.646
 248  4779.048
 249  4837.118
 250  4521.011
 251  5081.398
 252  5419.606
 253  4946.472
 254  5629.604
 255  5460.303
 256  4946.39
 257  5248.591
 258  5312.178
 259  5575.595
 260  5364.461
 261  5163.365
 262  4627.33
 263  4582.739
 264  4898.376
 265  5116.998
 266  4620.423
 267  4517.507
 268  4592.914
 269  4859.732
 270  5069.184
 271  5232.035
 272  4733.936
 273  4241.462
 274  4559.577
 275  4567.362
 276  4972.312
 277  4416.797
 278  4238.422
 279  3645.541
 280  4056.12
 281  4538.622
 282  4989.007
 283  4178.085
 284  4025.344
 285  4372.75
 286  4553.577
 287  5059.096
 288  5158.455
 289  5534.585
 290  5017.088
 291  4402.763
 292  4361.221
 293  4460.297
 294  4631.133
 295  5126.546
 296  4882.441
 297  4096.782
 298  4011.714
 299  4603.268
 300  4400.018
 301  5156.511
 302  4783.739
 303  3614.707
 304  3873.438
 305  4608.209
 306  5511.472
 307  6359.706
 308  6526.472
 309  5459.036
 310  5170.214
 311  5142.82
 312  5827.109
 313  5788.955
 314  4633.783
 315  4334.848
 316  4317.118
 317  4443.821
 318  4643.552
 319  4901.788
 320  4665.126
 321  4209.452
 322  4218.176
 323  4761.601
 324  5286.351
 325  4986.459
 326  4520.508
 327  3820.999
 328  4207.419
 329  4399.173
 330  4542.004
 331  5026.456
 332  4835.665
 333  4743.618
 334  4247.084
 335  4085.064
 336  4634.4
 337  4454.142
 338  4623.342
 339  4800.649
 340  4631.871
 341  4209.341
 342  4215.54
 343  5138.882
 344  4842.742
 345  4862.478
 346  4167.332
 347  3617.35
 348  3639.903
 349  3954.236
 350  4257.203
 351  4195.146
 352  4434.9
 353  4321.874
 354  4273.021
 355  4086.641
 356  4563.714
 357  4611.906
 358  4457.657
 359  4356.76
 360  4007.432
 361  4343.042
 362  4550.583
 363  4682.202
 364  4496.536
 365  4199.896
 366  4468.592
 367  4470.905
 368  4717.78
 369  4601.787
 370  4613.454
 371  4551.029
 372  4973.913
 373  5116.42
 374  4894.51
 375  4676.953
 376  4487.774
 377  4499.25
 378  4806.365
 379  4682.76
 380  5056.037
 381  5157.994
 382  5103.178
 383  4679.922
 384  4620.954
 385  5342.054
 386  5266.604
 387  5391.873
 388  5114.486
 389  4598.877
 390  4856.866
 391  5407.205
 392  5392.839
 393  5180.131
 394  4973.258
 395  4822.551
 396  4685.168
 397  5091.997
 398  4731.078
 399  4879.115
 400  4532.163
 401  4261.196
 402  4446.042
 403  4785.587
 404  4767.743
 405  4834.302
 406  3985.031
 407  4414.925
 408  4890.778
 409  4567.16
 410  5070.744
 411  4672.072
 412  4463.976
 413  4736.091
 414  4594.775
 415  4974.597
 416  4613.412
 417  4311.742
 418  4357.391
 419  4357.607
 420  4471.861
 421  4631.358
 422  4283.27
 423  4320.126
 424  3808.356
 425  3743.316
 426  4516.101
 427  4458.905
 428  4572.498
 429  4686.707
 430  4358.517
 431  3597.167
 432  4288.811
 433  4403.417
 434  4346.507
 435  4609.422
 436  4300.481
 437  3748.29
 438  4320.759
 439  4253.506
 440  3654.371
 441  4290.507
 442  4103.018
 443  4175.356
 444  4571.363
 445  4978.896
 446  4859.934
 447  4213.099
 448  4116.081
 449  4327.957
 450  4406.92
 451  4796.991
 452  5158.539
 453  4514.128
 454  4382.184
 455  4648.751
 456  4453.515
 457  4381.758
 458  4673.305
 459  4455.341
 460  4450.932
 461  4498.108
 462  4751.667
 463  5049.465
 464  5045.105
 465  5035.902
 466  4731.773
 467  5031.186
 468  5385.401
 469  4755.42
 470  4481.572
 471  4019.432
 472  4443.425
 473  4475.475
 474  4835.833
 475  4770.664
 476  4204.458
 477  3555.152
 478  3833.684
 479  4287.679
 480  4714.531
 481  4689.511
 482  4362.83
 483  4412.331
 484  4647.414
 485  4704.998
 486  5103.378
 487  5374.589
 488  4801.833
 489  3815.306
 490  4264.681
 491  4582.476
 492  4896.37
 493  5299.473
 494  5211.012
 495  4277.934
 496  4468.469
 497  4336.991
 498  4561.693
 499  4614.224
 500  4320.484
 501  3943.628
 502  4499.411
 503  4111.777
 504  4244.314
 505  4822.572
 506  4360.035
 507  4219.653
 508  4636.264
 509  4254.465
 510  4698.578
 511  4972.261
