# Input file       =  1183266337.135035_cleaned.dat
# Candidate        =  PSR_0332+5434
# Telescope        =  AR
# Epoch_topo       =  57939.212455266606
# Epoch_bary       =  N/A
# T_sample         =  0.002
# Data Folded      =  7340032
# Data Avg         =  0.0462571254756967
# Data StdDev      =  1.00024494067058 
# Profile Bins     =  512
# Profile Avg      =  663.19189484437  
# Profile StdDev   =  119.762363866987 
# Reduced chi-sqr  =  1.605
# Prob(Noise)      <  9.73e-17   (~8.2 sigma)
# P_topo (ms)      =  714.485920094357  +/- 0.000313
# P'_topo (s/s)    =  -0                +/- 1.65e-10
# P''_topo (s/s^2) =  0                 +/- 7.29e-14
# P_bary (ms)      =  N/A
# P'_bary (s/s)    =  N/A
# P''_bary (s/s^2) =  N/A
# P_orb (s)        =  N/A
# asin(i)/c (s)    =  N/A
# eccentricity     =  N/A
# w (rad)          =  N/A
# T_peri           =  N/A
######################################################
   0  1405.375
   1  1388.485
   2  1216.563
   3  1002.923
   4  735.0759
   5  682.3721
   6  668.7623
   7  603.5285
   8  597.8795
   9  612.1281
  10  633.5151
  11  756.1028
  12  857.256
  13  743.7213
  14  654.5282
  15  635.3464
  16  592.0322
  17  675.8521
  18  703.3026
  19  651.9999
  20  717.3776
  21  827.5266
  22  685.6183
  23  581.642
  24  670.9631
  25  618.2939
  26  639.1628
  27  707.4645
  28  711.4911
  29  693.0306
  30  577.4983
  31  706.2418
  32  715.4404
  33  663.7661
  34  601.5897
  35  590.9885
  36  511.3354
  37  649.6742
  38  613.299
  39  572.0536
  40  636.5717
  41  650.9518
  42  667.8005
  43  653.9742
  44  747.3553
  45  781.5255
  46  754.7198
  47  628.4117
  48  673.4061
  49  709.4308
  50  736.8424
  51  813.0534
  52  739.5575
  53  655.1183
  54  616.433
  55  762.4902
  56  706.2355
  57  689.1544
  58  755.838
  59  655.6328
  60  619.3952
  61  554.5323
  62  730.4636
  63  734.7784
  64  554.8369
  65  665.8026
  66  756.5948
  67  811.0137
  68  684.4599
  69  646.9883
  70  692.2153
  71  692.1148
  72  646.3989
  73  753.7363
  74  759.0884
  75  789.9677
  76  690.2152
  77  696.0317
  78  742.1404
  79  698.7169
  80  583.3485
  81  529.4338
  82  588.175
  83  595.2021
  84  701.713
  85  773.127
  86  588.3058
  87  598.3526
  88  633.6819
  89  662.0999
  90  601.8995
  91  604.5532
  92  587.0497
  93  663.7151
  94  573.597
  95  581.2308
  96  533.5892
  97  533.2975
  98  556.6876
  99  606.9459
 100  682.9434
 101  687.2009
 102  641.7057
 103  507.1239
 104  547.6423
 105  579.9655
 106  566.8662
 107  627.4222
 108  546.3699
 109  581.4688
 110  668.0776
 111  661.6631
 112  507.3516
 113  563.2832
 114  574.2796
 115  650.8344
 116  540.1848
 117  545.8842
 118  582.967
 119  541.8699
 120  636.0934
 121  723.2348
 122  761.8311
 123  612.918
 124  537.4512
 125  517.2888
 126  650.3222
 127  702.1141
 128  712.2047
 129  621.0875
 130  535.6253
 131  637.3696
 132  546.9047
 133  541.9704
 134  665.8481
 135  813.2575
 136  804.8922
 137  578.1665
 138  586.2007
 139  697.2672
 140  746.9641
 141  712.6569
 142  615.7349
 143  705.0469
 144  600.8549
 145  535.4396
 146  627.1716
 147  737.8718
 148  733.6329
 149  701.3747
 150  774.1732
 151  785.2459
 152  723.2626
 153  636.5978
 154  617.5157
 155  712.7
 156  663.0881
 157  628.6349
 158  652.8087
 159  767.6796
 160  682.8077
 161  659.2871
 162  764.5249
 163  839.1993
 164  753.9182
 165  722.3535
 166  647.6534
 167  670.2994
 168  631.9464
 169  753.4122
 170  704.7949
 171  714.1417
 172  728.4297
 173  637.7473
 174  624.8087
 175  643.4367
 176  575.5584
 177  717.4911
 178  769.732
 179  758.6793
 180  733.2643
 181  693.6887
 182  800.3825
 183  813.077
 184  641.2429
 185  677.4912
 186  694.0505
 187  712.3442
 188  634.1146
 189  682.4569
 190  717.9207
 191  712.8753
 192  695.5862
 193  767.5485
 194  723.7441
 195  734.6964
 196  701.9543
 197  672.5453
 198  516.1558
 199  557.2725
 200  587.0505
 201  554.225
 202  667.403
 203  681.266
 204  640.6656
 205  612.3679
 206  665.7233
 207  713.7358
 208  689.1358
 209  704.9019
 210  780.2308
 211  675.0046
 212  634.2842
 213  653.6185
 214  629.7436
 215  664.4672
 216  641.2956
 217  712.8599
 218  749.2728
 219  796.0445
 220  711.8632
 221  592.5718
 222  513.196
 223  554.7991
 224  542.3542
 225  509.1764
 226  614.3762
 227  708.8478
 228  755.6611
 229  693.8705
 230  746.4635
 231  745.8223
 232  708.8713
 233  754.2526
 234  672.9241
 235  579.322
 236  585.589
 237  645.7767
 238  710.3825
 239  676.3116
 240  588.07
 241  575.9587
 242  688.0209
 243  678.6384
 244  654.4748
 245  652.5118
 246  640.5875
 247  703.4686
 248  677.5139
 249  668.7132
 250  637.8854
 251  625.4974
 252  651.3414
 253  700.3029
 254  623.2866
 255  660.5732
 256  655.1075
 257  653.5203
 258  592.0925
 259  564.7951
 260  692.6234
 261  648.1161
 262  722.898
 263  721.0307
 264  737.1531
 265  783.3273
 266  675.167
 267  734.9388
 268  754.8925
 269  741.4538
 270  736.3067
 271  797.1031
 272  751.1454
 273  695.9124
 274  688.3277
 275  710.0162
 276  670.1584
 277  697.6497
 278  763.1216
 279  736.7662
 280  745.2551
 281  797.0696
 282  782.6213
 283  788.9725
 284  756.3264
 285  783.9595
 286  675.6489
 287  787.3506
 288  839.9503
 289  793.2407
 290  702.3591
 291  663.4311
 292  615.7321
 293  683.0272
 294  632.075
 295  594.8726
 296  684.5936
 297  780.0819
 298  702.3898
 299  682.9585
 300  629.3177
 301  709.9424
 302  657.083
 303  617.6301
 304  676.1271
 305  660.0341
 306  699.3658
 307  750.9817
 308  701.0154
 309  695.1489
 310  655.2269
 311  559.9647
 312  602.6411
 313  523.7733
 314  548.7747
 315  771.2916
 316  714.9838
 317  598.9284
 318  657.8931
 319  641.6677
 320  661.941
 321  599.5827
 322  719.936
 323  685.995
 324  616.7371
 325  552.5564
 326  543.2122
 327  543.1973
 328  566.269
 329  637.9044
 330  614.8848
 331  584.2568
 332  596.5832
 333  606.8148
 334  581.1935
 335  639.8744
 336  618.3666
 337  542.8511
 338  437.3644
 339  482.7684
 340  550.0718
 341  554.3812
 342  533.6545
 343  584.1973
 344  522.0309
 345  561.4053
 346  544.7338
 347  462.8078
 348  609.1112
 349  653.4282
 350  565.2798
 351  553.0116
 352  673.4798
 353  567.2905
 354  502.5089
 355  611.277
 356  701.9237
 357  631.2679
 358  576.4495
 359  651.8908
 360  663.0162
 361  672.6113
 362  687.9428
 363  616.6753
 364  621.8817
 365  608.3633
 366  653.011
 367  640.0272
 368  507.6893
 369  628.4748
 370  628.6583
 371  708.7643
 372  672.0385
 373  620.4891
 374  533.579
 375  531.1844
 376  468.4208
 377  484.1818
 378  576.066
 379  646.0933
 380  703.213
 381  625.8619
 382  672.4073
 383  589.6685
 384  598.2061
 385  668.0682
 386  593.9625
 387  695.1124
 388  681.1133
 389  578.3054
 390  631.9313
 391  512.166
 392  544.3978
 393  470.5245
 394  515.9438
 395  493.2214
 396  377.2822
 397  464.2129
 398  554.9395
 399  476.7278
 400  516.2172
 401  558.3603
 402  587.3085
 403  590.6553
 404  620.7528
 405  682.4901
 406  596.2809
 407  609.9641
 408  590.976
 409  584.3889
 410  589.8082
 411  566.2963
 412  506.194
 413  523.2386
 414  610.3294
 415  529.966
 416  435.8091
 417  414.4534
 418  527.2953
 419  641.8289
 420  574.6166
 421  644.4607
 422  611.3125
 423  575.9789
 424  667.7518
 425  720.9003
 426  677.2966
 427  610.3761
 428  591.1958
 429  558.3974
 430  564.2065
 431  732.9432
 432  693.1237
 433  599.9512
 434  642.8462
 435  580.5209
 436  486.9732
 437  640.1301
 438  661.4131
 439  701.6916
 440  730.1898
 441  744.0074
 442  839.09
 443  749.5309
 444  708.648
 445  783.9426
 446  790.5451
 447  735.9926
 448  732.8931
 449  706.4176
 450  680.0105
 451  649.8511
 452  703.8464
 453  714.8267
 454  607.559
 455  704.3962
 456  691.6112
 457  626.4188
 458  613.7153
 459  498.2518
 460  623.1884
 461  672.8822
 462  594.7958
 463  545.85
 464  594.9113
 465  634.8374
 466  693.2239
 467  680.9318
 468  622.4036
 469  697.343
 470  593.2465
 471  617.068
 472  661.8093
 473  675.7137
 474  729.0233
 475  707.4179
 476  742.4049
 477  742.7147
 478  734.8409
 479  694.076
 480  671.2743
 481  638.0447
 482  639.0001
 483  658.1258
 484  737.3931
 485  744.7143
 486  746.3678
 487  707.0901
 488  657.3313
 489  572.9726
 490  749.2328
 491  785.7599
 492  709.8052
 493  741.758
 494  724.4313
 495  690.0354
 496  618.7319
 497  619.1821
 498  681.9207
 499  853.1413
 500  829.0898
 501  726.4252
 502  659.2272
 503  689.3099
 504  765.1082
 505  779.4794
 506  788.4826
 507  848.1295
 508  943.598
 509  1060.642
 510  1333.259
 511  1477.786
