# Input file       =  1183439200.089815_cleaned.dat
# Candidate        =  PSR_0332+5434
# Telescope        =  AR
# Epoch_topo       =  57941.213183909895
# Epoch_bary       =  N/A
# T_sample         =  0.002
# Data Folded      =  7340032
# Data Avg         =  0.409263527708909
# Data StdDev      =  6.88409396699671 
# Profile Bins     =  512
# Profile Avg      =  5867.15364372283 
# Profile StdDev   =  824.253473371493 
# Reduced chi-sqr  =  0.986
# Prob(Noise)      <  0.58   (~0.0 sigma)
# P_topo (ms)      =  714.484418234539  +/- 0.000718
# P'_topo (s/s)    =  -0                +/- 3.79e-10
# P''_topo (s/s^2) =  0                 +/- 1.67e-13
# P_bary (ms)      =  N/A
# P'_bary (s/s)    =  N/A
# P''_bary (s/s^2) =  N/A
# P_orb (s)        =  N/A
# asin(i)/c (s)    =  N/A
# eccentricity     =  N/A
# w (rad)          =  N/A
# T_peri           =  N/A
######################################################
   0  5163.248
   1  5362.104
   2  5704.966
   3  5909.152
   4  5884.741
   5  5798.936
   6  5954.475
   7  6286.1
   8  6008.294
   9  5902.849
  10  5594.653
  11  5507.359
  12  5708.301
  13  5438.807
  14  5232.502
  15  5246.804
  16  5394.321
  17  5371.155
  18  5358.724
  19  5513.182
  20  5629.236
  21  5773.255
  22  5977.212
  23  6125.137
  24  5999.997
  25  5753.644
  26  5547.635
  27  5401.803
  28  5331.704
  29  5593.863
  30  5234.526
  31  5522.778
  32  5655.068
  33  5119.375
  34  5493.717
  35  5605.579
  36  5533.648
  37  5102.422
  38  5344.655
  39  5970.042
  40  6347.261
  41  6389.808
  42  6052.284
  43  6003.078
  44  6002.354
  45  6401.236
  46  6382.594
  47  6250.143
  48  6207.665
  49  6107.386
  50  6091.3
  51  6137.243
  52  6477.746
  53  6193.328
  54  5859.691
  55  5917.908
  56  6110.931
  57  5890.629
  58  5992.653
  59  6172.081
  60  5922.58
  61  5661.686
  62  5559.391
  63  5747.178
  64  5858.42
  65  5857.063
  66  5988.766
  67  6383.608
  68  6041.476
  69  5775.093
  70  5826.425
  71  6092.728
  72  6024.505
  73  5680.226
  74  5868.824
  75  6292.896
  76  5907.137
  77  5846.225
  78  5694.868
  79  5747.254
  80  5776.95
  81  5666.301
  82  5672.202
  83  5356.544
  84  5537.036
  85  5373.685
  86  5327.785
  87  5435.543
  88  5401.881
  89  5481.211
  90  5327.303
  91  5061.654
  92  5497.291
  93  5618.468
  94  5590.884
  95  5248.25
  96  4890.137
  97  5253.408
  98  5558.387
  99  5449.72
 100  5139.365
 101  5258.153
 102  5544.868
 103  5381.698
 104  5603.659
 105  5690.726
 106  5341.801
 107  5539.021
 108  6453.812
 109  6447.478
 110  6285.528
 111  5842.25
 112  5937.712
 113  6086.037
 114  6230.582
 115  6271.449
 116  6551.9
 117  5872.509
 118  5651.935
 119  5518.124
 120  5727.662
 121  5883.57
 122  5978.906
 123  6226.215
 124  6111.775
 125  6127.34
 126  6191.947
 127  6329.651
 128  6441.183
 129  6440.313
 130  6275.425
 131  6475.829
 132  6124.498
 133  6379.919
 134  6236.029
 135  5897.085
 136  6092.056
 137  6170.671
 138  6037.921
 139  5918.425
 140  5877.097
 141  5793.144
 142  5989.406
 143  6174.1
 144  6270.644
 145  6600.346
 146  6811.313
 147  7130.567
 148  7110.944
 149  6971.426
 150  6571.945
 151  5898.012
 152  6042.901
 153  6132.167
 154  6022.931
 155  6239.018
 156  6290.259
 157  6048.671
 158  6142.746
 159  6088.091
 160  6049.085
 161  6121.103
 162  5818.6
 163  5995.05
 164  6207.909
 165  6274.949
 166  6297.883
 167  5751.29
 168  6125.128
 169  6301.666
 170  6176.218
 171  6389.211
 172  6117.623
 173  6144.809
 174  6691.11
 175  6554.869
 176  6038.977
 177  6111.116
 178  6090.695
 179  6018.239
 180  6038.657
 181  6183.454
 182  6215.103
 183  5772.931
 184  5585.313
 185  5790.652
 186  5535.339
 187  5553.513
 188  5875.296
 189  6255.287
 190  6048.578
 191  5907.272
 192  5744.996
 193  5645.937
 194  5794.828
 195  5906.831
 196  5993.33
 197  5964.619
 198  6237.471
 199  6307.732
 200  6076.158
 201  6005.566
 202  5874.615
 203  5626.361
 204  5996.735
 205  6248.049
 206  5997.802
 207  6098.623
 208  6103.944
 209  6041.027
 210  5788.703
 211  5777.88
 212  5465.562
 213  5501.197
 214  5622.477
 215  5382.481
 216  5325.845
 217  5791.932
 218  5594.373
 219  5350.474
 220  5131.678
 221  5295.043
 222  5580.919
 223  5778.894
 224  5782.561
 225  5551.155
 226  4988.479
 227  5065.759
 228  5420.155
 229  5251.057
 230  5213.033
 231  5434.97
 232  5645.63
 233  6148.833
 234  6140.505
 235  6124.736
 236  6009.902
 237  5890.406
 238  5600.392
 239  5710.006
 240  5839.472
 241  6072.708
 242  5890.836
 243  5781.897
 244  5524.979
 245  5345.954
 246  5760.149
 247  5869.014
 248  5972.167
 249  6025.373
 250  6027.481
 251  6070.518
 252  6098.422
 253  5985.302
 254  6044.989
 255  5776.081
 256  6055.56
 257  5767.165
 258  5350.352
 259  5855.258
 260  6088.212
 261  6137.853
 262  5741.855
 263  5546.023
 264  5570.265
 265  5759.284
 266  6140.574
 267  5741.714
 268  5795.733
 269  6060.949
 270  5996.455
 271  5777.928
 272  5668.057
 273  5401.046
 274  5824.953
 275  6108.243
 276  5484.074
 277  5300.437
 278  5621.442
 279  5738.615
 280  5689.08
 281  6123.814
 282  6152.302
 283  6236.448
 284  6462.359
 285  6670.733
 286  6433.061
 287  6369.826
 288  6419.282
 289  6317.484
 290  6123.418
 291  5961.776
 292  5856.162
 293  6030.09
 294  5995.766
 295  6172.161
 296  5964.655
 297  6014.983
 298  5823.287
 299  5968.838
 300  6153.125
 301  6261.701
 302  6441.257
 303  6377.413
 304  6458.511
 305  6801.567
 306  6694.514
 307  6485.459
 308  6887.386
 309  7270.341
 310  7352.725
 311  7258.235
 312  7156.007
 313  7291.372
 314  7265.374
 315  7251.655
 316  7281.51
 317  7329.366
 318  7189.066
 319  6586.561
 320  6509.329
 321  6778.111
 322  6775.816
 323  6979.222
 324  7695.716
 325  7816.093
 326  7642.583
 327  7720.904
 328  8084.036
 329  7333.301
 330  6706.965
 331  6572.931
 332  6251.993
 333  6253.622
 334  5912.881
 335  6552.077
 336  6648.545
 337  6855.596
 338  6704.893
 339  6468.68
 340  6718.269
 341  6463.993
 342  6796.284
 343  6698.073
 344  6604.7
 345  6963.024
 346  7065.89
 347  7016.432
 348  6960.928
 349  6705.025
 350  6667.732
 351  6572.27
 352  6817.214
 353  6974.637
 354  6909.176
 355  6753.025
 356  6390.59
 357  6408.017
 358  6517.782
 359  6538.199
 360  6476.864
 361  6839.65
 362  6584.344
 363  6375.254
 364  6636.272
 365  6458.002
 366  6271.519
 367  6191.936
 368  6003.593
 369  6118.999
 370  6153.702
 371  6157.343
 372  5635.773
 373  5599.003
 374  5817.427
 375  6333.099
 376  6441.743
 377  6386.547
 378  5925.753
 379  5658.787
 380  5581.607
 381  5660.426
 382  5256.133
 383  5221.903
 384  5098.182
 385  5082.055
 386  5290.588
 387  4782.112
 388  4465.581
 389  4597.278
 390  5143.2
 391  5549.242
 392  5658.498
 393  5652.702
 394  5676.347
 395  5463.4
 396  5499.994
 397  5166.955
 398  5294.307
 399  5458.607
 400  5507.8
 401  5230.72
 402  5266.675
 403  5287.007
 404  5325.253
 405  5319.188
 406  5331.143
 407  5431.518
 408  5008.427
 409  4997.198
 410  5060.006
 411  4966.66
 412  4729.79
 413  4608.375
 414  4746.454
 415  4849.399
 416  4806.748
 417  4236.382
 418  4282.116
 419  4575.726
 420  4555.285
 421  4296.307
 422  4301.1
 423  4368.332
 424  4302.157
 425  4410.843
 426  4671.325
 427  5296.165
 428  5370.372
 429  5061.619
 430  5621.183
 431  5356.295
 432  5376.332
 433  5488.266
 434  5417.838
 435  5330.938
 436  5923.397
 437  6451.862
 438  6309.716
 439  5865.334
 440  5677.633
 441  6313.46
 442  6637.433
 443  6722.042
 444  6580.54
 445  6069.389
 446  6018.875
 447  6221.189
 448  6285.898
 449  6146.01
 450  6131.24
 451  5953.504
 452  5878.127
 453  5883.664
 454  5686.913
 455  5532.896
 456  5399.332
 457  5462.449
 458  5254.095
 459  5357.023
 460  5557.058
 461  5541.428
 462  5472.223
 463  5143.602
 464  5024.964
 465  4970.588
 466  5557.974
 467  5498.122
 468  4875.605
 469  4903.841
 470  5157.707
 471  5191.114
 472  5333.78
 473  5412.803
 474  5159.145
 475  5028.792
 476  5288.014
 477  5592.725
 478  5844.984
 479  5775.051
 480  5553.42
 481  5871.505
 482  5493.335
 483  5148.646
 484  4877.433
 485  4962.896
 486  5456.963
 487  5352.249
 488  5478.376
 489  5492.589
 490  5220.322
 491  5162.702
 492  5250.357
 493  5256.788
 494  5302.776
 495  5220.795
 496  5283.726
 497  5354.352
 498  5450.84
 499  5687.054
 500  5584.674
 501  5060.847
 502  5174.866
 503  5505.831
 504  5338.994
 505  5508.569
 506  5258.67
 507  5018.829
 508  5366.597
 509  5509.749
 510  5481.611
 511  5416.87
