# Input file       =  1183768721.108474_cleaned.dat
# Candidate        =  PSR_0332+5434
# Telescope        =  AR
# Epoch_topo       =  57945.027084588823
# Epoch_bary       =  N/A
# T_sample         =  0.002
# Data Folded      =  7208960
# Data Avg         =  0.30675249535654 
# Data StdDev      =  6.37957543168881 
# Profile Bins     =  1024
# Profile Avg      =  2159.54312868092 
# Profile StdDev   =  535.276412825931 
# Reduced chi-sqr  =  0.427
# Prob(Noise)      <  1   (~0.0 sigma)
# P_topo (ms)      =  714.481634570847  +/- 5.57e-05
# P'_topo (s/s)    =  -0                +/- 2.99e-11
# P''_topo (s/s^2) =  0                 +/- 1.35e-14
# P_bary (ms)      =  N/A
# P'_bary (s/s)    =  N/A
# P''_bary (s/s^2) =  N/A
# P_orb (s)        =  N/A
# asin(i)/c (s)    =  N/A
# eccentricity     =  N/A
# w (rad)          =  N/A
# T_peri           =  N/A
######################################################
   0  2075.201
   1  2117.97
   2  2187.408
   3  2260.661
   4  2253.896
   5  2281.681
   6  2219.872
   7  2308.937
   8  2141.354
   9  1966.215
  10  1816.686
  11  1878.628
  12  1930.401
  13  1900.834
  14  1850.904
  15  1951.697
  16  2196.386
  17  2142.283
  18  2107.913
  19  1955.644
  20  2113.898
  21  2106.412
  22  2244.994
  23  2225.892
  24  2190.881
  25  2021.45
  26  2097.125
  27  2133.541
  28  2123.024
  29  2091.765
  30  2101.545
  31  1995.723
  32  2010.208
  33  2097.047
  34  2153.917
  35  2160.387
  36  2077.467
  37  2165.541
  38  2114.04
  39  1997.126
  40  1902.451
  41  1932.523
  42  1767.82
  43  1705.362
  44  1794.589
  45  2108.01
  46  2059.937
  47  2058.263
  48  2035.45
  49  2183.397
  50  2233.774
  51  2363.227
  52  2387.538
  53  2245.112
  54  2175.313
  55  2382.263
  56  2521.026
  57  2468.462
  58  2317.331
  59  2308.571
  60  2312.352
  61  2171.427
  62  2039.619
  63  2062.902
  64  2046.103
  65  1899.079
  66  1866.185
  67  2076.23
  68  2394.599
  69  2460.596
  70  2469.94
  71  2433.48
  72  2332.595
  73  2131.61
  74  2240.314
  75  2299.19
  76  2252.43
  77  2009.431
  78  2194.257
  79  2267.985
  80  2310.703
  81  2254.781
  82  2233.15
  83  2106.331
  84  2177.215
  85  2299.217
  86  2486.473
  87  2264.336
  88  2337.496
  89  2415.025
  90  2422.607
  91  2301.054
  92  2233.582
  93  2179.92
  94  2185.898
  95  2156.371
  96  2148.139
  97  2039.839
  98  2088.367
  99  2127.785
 100  2126.204
 101  2044.276
 102  2037.063
 103  2085.755
 104  2064.061
 105  2192.382
 106  2115.579
 107  2034.948
 108  1905.853
 109  1932.441
 110  1913.928
 111  1928.619
 112  2010.256
 113  2094.443
 114  2091.67
 115  2088.344
 116  2080.711
 117  2184.509
 118  2182.063
 119  2360.332
 120  2420.773
 121  2374.506
 122  2334.099
 123  2330.326
 124  2198.956
 125  1905.318
 126  1840.658
 127  1935.062
 128  2104.209
 129  2026.815
 130  2103.987
 131  2006.932
 132  2031.754
 133  1941.519
 134  2074.754
 135  2042.364
 136  2097.175
 137  2016.233
 138  1879.547
 139  1928.644
 140  2041.524
 141  2158.577
 142  2165.76
 143  2074.644
 144  2021.972
 145  2015.596
 146  1965.736
 147  1950.444
 148  2002.216
 149  2076.319
 150  2223.094
 151  2221.259
 152  2282.075
 153  2379.235
 154  2308.855
 155  2170.379
 156  2130.027
 157  2193.865
 158  2135.96
 159  2090.637
 160  1921.935
 161  1868.693
 162  1843.939
 163  1971.348
 164  1962.768
 165  2009.603
 166  1979.292
 167  2152.466
 168  2198.806
 169  2248.363
 170  2195.878
 171  2169.538
 172  2142.729
 173  2108.261
 174  2040.362
 175  2146.877
 176  2116.023
 177  2055.165
 178  2118.403
 179  2242.535
 180  2349.298
 181  2326.966
 182  2217.101
 183  2133.196
 184  2098.283
 185  2246.978
 186  2174.513
 187  2250.753
 188  2286.324
 189  2455.679
 190  2497.741
 191  2361.856
 192  2250.903
 193  2137.628
 194  2208.701
 195  2316.75
 196  2437.729
 197  2477.386
 198  2332.048
 199  2202.016
 200  2161.74
 201  2339.102
 202  2341.847
 203  2279.692
 204  2304.026
 205  2384.246
 206  2230.279
 207  2067.743
 208  1868.672
 209  1893.17
 210  1862.235
 211  2088.53
 212  2138.877
 213  2191.731
 214  2071.655
 215  2286.928
 216  2300.282
 217  2285.652
 218  2378.462
 219  2506.749
 220  2397.699
 221  2318.185
 222  2256.042
 223  2261.759
 224  2148.404
 225  2057.228
 226  2059.839
 227  1953.973
 228  1900.385
 229  1864.537
 230  1941.89
 231  1962.937
 232  2172.491
 233  2378.398
 234  2532.79
 235  2436.254
 236  2428.213
 237  2559.128
 238  2549.226
 239  2480.484
 240  2381.864
 241  2289.559
 242  2196.412
 243  2084.826
 244  1860.412
 245  1799.374
 246  1844.398
 247  1941.802
 248  2073.719
 249  2232.398
 250  2204.369
 251  2168.287
 252  2270.512
 253  2437.144
 254  2373.657
 255  2446.877
 256  2276.971
 257  2226.903
 258  1986.525
 259  2027.463
 260  2085.732
 261  2141.087
 262  2082.21
 263  2126.68
 264  2001.378
 265  2023.313
 266  2010.106
 267  2270.144
 268  2330.788
 269  2305.793
 270  2303.408
 271  2289.953
 272  2108.862
 273  2032.126
 274  2083.848
 275  2240.649
 276  2210.983
 277  2219.684
 278  2213.509
 279  2192.181
 280  2299.736
 281  2266.993
 282  2356.214
 283  2274.539
 284  2273.287
 285  2144.586
 286  2172.908
 287  2143.935
 288  2228.609
 289  2343.338
 290  2325.078
 291  2212.357
 292  2081.822
 293  2188.064
 294  2197.394
 295  2016.199
 296  1995.519
 297  1955.125
 298  2116.04
 299  2137.186
 300  2395.707
 301  2404.998
 302  2501.74
 303  2351.514
 304  2355.424
 305  2223.925
 306  2135.436
 307  2080.033
 308  2037.518
 309  2076.457
 310  2069.762
 311  2109.953
 312  2092.107
 313  2245.79
 314  2288.466
 315  2223.736
 316  2208.701
 317  2258.589
 318  2321.518
 319  2350.299
 320  2375.863
 321  2386.641
 322  2162.388
 323  2064.179
 324  1867.108
 325  1874.123
 326  1981.357
 327  2252.396
 328  2337.313
 329  2279.152
 330  2275.358
 331  2270.852
 332  2314.78
 333  2315.456
 334  2367.122
 335  2357.795
 336  2262.045
 337  2049.295
 338  2040.665
 339  2175.732
 340  2167.27
 341  2033.05
 342  2091.155
 343  2067.514
 344  2120.497
 345  2168.071
 346  2293.634
 347  2315.886
 348  2369.837
 349  2400.135
 350  2391.487
 351  2310.293
 352  2265.909
 353  2248.98
 354  2095.46
 355  2048.637
 356  1956.512
 357  1936.474
 358  1950.608
 359  2059.748
 360  2016.502
 361  2119.798
 362  2036.499
 363  2199.721
 364  2218.644
 365  2335.361
 366  2214.508
 367  2296.213
 368  2388.42
 369  2484.173
 370  2417.583
 371  2298.618
 372  2103.712
 373  1919.306
 374  1714.519
 375  1684.248
 376  1713.187
 377  1780.642
 378  1967.259
 379  2209.225
 380  2173.046
 381  2000.747
 382  2052.544
 383  2248.694
 384  2455.208
 385  2521.253
 386  2706.381
 387  2686.315
 388  2445.275
 389  2175.654
 390  1901.235
 391  1847.66
 392  1774.083
 393  1749.394
 394  1705.875
 395  1657.162
 396  1758.357
 397  1861.03
 398  2120.011
 399  2187.08
 400  2367.638
 401  2508.754
 402  2466.303
 403  2261.005
 404  2285.444
 405  2247.741
 406  2132.787
 407  1933.805
 408  1962.114
 409  1927.635
 410  1946.319
 411  1811.577
 412  1836.584
 413  1944.542
 414  2169.029
 415  2335.437
 416  2340.026
 417  2476.938
 418  2334.844
 419  2324.89
 420  2284.389
 421  2321.789
 422  2268.88
 423  2204.096
 424  2154.944
 425  1985.892
 426  1834.789
 427  1841.225
 428  1899.753
 429  1989.591
 430  2052.956
 431  2251.317
 432  2188.087
 433  2269.009
 434  2362.479
 435  2464.412
 436  2289.858
 437  2210.629
 438  2202.9
 439  2244.513
 440  2168.349
 441  2177.186
 442  2366.312
 443  2361.323
 444  2508.367
 445  2467.577
 446  2509.494
 447  2324.035
 448  2306.557
 449  2422.962
 450  2435.192
 451  2456.595
 452  2459.421
 453  2517.152
 454  2500.494
 455  2262.476
 456  2206.603
 457  2117.906
 458  2155.928
 459  2125.409
 460  2170.836
 461  2171.614
 462  2072.441
 463  2080.805
 464  2147.45
 465  2193.127
 466  2197.302
 467  2119.066
 468  2376.924
 469  2266.192
 470  2117.365
 471  1914.129
 472  2092.681
 473  2335.827
 474  2309.045
 475  2193.82
 476  2043.475
 477  2019.763
 478  2028.609
 479  2108.126
 480  1983.774
 481  1986.758
 482  2091.099
 483  2210.171
 484  2057.103
 485  2052.837
 486  2149.387
 487  2274.815
 488  2202.212
 489  2169.236
 490  2202.762
 491  2175.754
 492  2226.565
 493  2196.384
 494  2319.725
 495  2291.539
 496  2228.651
 497  2199.909
 498  2294.149
 499  2416.765
 500  2316.327
 501  2234.024
 502  2296.468
 503  2347.546
 504  2139.515
 505  2067.748
 506  1931.034
 507  1955.573
 508  1979.747
 509  2107.399
 510  2217.673
 511  2200.924
 512  2272.3
 513  2439.55
 514  2433.078
 515  2332.464
 516  2289.448
 517  2457.158
 518  2498.508
 519  2579.089
 520  2382.746
 521  2194.152
 522  1931.505
 523  1817.409
 524  1820.795
 525  1819.444
 526  1858.06
 527  2024.575
 528  2047.597
 529  2047.673
 530  2090.124
 531  2243.04
 532  2368.62
 533  2527.214
 534  2478.656
 535  2479.906
 536  2279.798
 537  2154.289
 538  2145.163
 539  2173.971
 540  2109.488
 541  1855.487
 542  1850.776
 543  1837.14
 544  1884.601
 545  1800.377
 546  1877.301
 547  2053.617
 548  2096.176
 549  2367.366
 550  2701.467
 551  2657.114
 552  2482.873
 553  2323.929
 554  2414.451
 555  2294.304
 556  2141.268
 557  2141.967
 558  2036.224
 559  1737.813
 560  1594.856
 561  1559.686
 562  1723.203
 563  1749.879
 564  2056.039
 565  2135.005
 566  2180.927
 567  2190.832
 568  2348.199
 569  2251.568
 570  2146.528
 571  2038.198
 572  2091.098
 573  1969.838
 574  1839.779
 575  1826.164
 576  1882.691
 577  1991.166
 578  2123.026
 579  2350.378
 580  2388.291
 581  2434.448
 582  2373.094
 583  2382.105
 584  2263.083
 585  2336.483
 586  2510.548
 587  2516.081
 588  2108.12
 589  1818.237
 590  1820.987
 591  2065.668
 592  2179.207
 593  2109.208
 594  2022.977
 595  2066.228
 596  2099.08
 597  2237.057
 598  2317.636
 599  2386.485
 600  2358.745
 601  2332.421
 602  2351.662
 603  2253.7
 604  2099.895
 605  2110.15
 606  2063.901
 607  2094.855
 608  2059.39
 609  2120.142
 610  2019.032
 611  1912.433
 612  2034.884
 613  2039.907
 614  2196.149
 615  2283.923
 616  2482.607
 617  2375.58
 618  2320.172
 619  2169.802
 620  2132.957
 621  2067.794
 622  2086.567
 623  2058.274
 624  1974.585
 625  1826.95
 626  1914.04
 627  1984.905
 628  2052.248
 629  2054.077
 630  2093.775
 631  2000.69
 632  1910.901
 633  1854.13
 634  2030.619
 635  2080.256
 636  2132.136
 637  2081.826
 638  2130.755
 639  2155.509
 640  2250.399
 641  2221.839
 642  2252.521
 643  2279.774
 644  2292.278
 645  2341.331
 646  2521.369
 647  2534.81
 648  2693.668
 649  2906.163
 650  3129.307
 651  3251.708
 652  3104.805
 653  3028.855
 654  2902.297
 655  2797.854
 656  2740.972
 657  2556.435
 658  2283.156
 659  2012.046
 660  2014.594
 661  2037.294
 662  2104.293
 663  2106.021
 664  2232.611
 665  2271.058
 666  2303.191
 667  2255.715
 668  2168.259
 669  1991.949
 670  2011.14
 671  1942.899
 672  1919.987
 673  1879.122
 674  2035.354
 675  2077.79
 676  2123.653
 677  2156.541
 678  2231.438
 679  2283.961
 680  2409.962
 681  2484.707
 682  2420.664
 683  2397.795
 684  2261.724
 685  2269.577
 686  2138.541
 687  2022.477
 688  1953.002
 689  1799.75
 690  1872.665
 691  1908.205
 692  1928.841
 693  1916.99
 694  1924.915
 695  2079.521
 696  2145.578
 697  2227.917
 698  2321.97
 699  2418.715
 700  2233.203
 701  2114.553
 702  1972.294
 703  1829.532
 704  1661.468
 705  1847.274
 706  2022.517
 707  1869.022
 708  1944.806
 709  1968.169
 710  2110.215
 711  2059.171
 712  2176.33
 713  2275.579
 714  2163.612
 715  2128.082
 716  2323.172
 717  2337.948
 718  2265.768
 719  2129.677
 720  2119.02
 721  1947.549
 722  1796.99
 723  1826.225
 724  1926.13
 725  1937.383
 726  1980.106
 727  1962.164
 728  2013.588
 729  1954.969
 730  2028.5
 731  2029.552
 732  2100.019
 733  2044.714
 734  1907.845
 735  1872.43
 736  1851.811
 737  1816.939
 738  1841.742
 739  2014.199
 740  2096.466
 741  2142.373
 742  2036.588
 743  1950.363
 744  1996.998
 745  2247.58
 746  2418.243
 747  2459.658
 748  2388.311
 749  2525.029
 750  2433.765
 751  2367.106
 752  2113.404
 753  2093.397
 754  2018.199
 755  2042.18
 756  1984.7
 757  1985.403
 758  2006.244
 759  2092.968
 760  2107.904
 761  2280.592
 762  2266.107
 763  2229.31
 764  2212.28
 765  2242.958
 766  2144.749
 767  2148.746
 768  2175.542
 769  2358.969
 770  2313.381
 771  2218.876
 772  2147.284
 773  2183.141
 774  2137.894
 775  2164.308
 776  2114.135
 777  2124.345
 778  2038.487
 779  2037.744
 780  2086.854
 781  2091.392
 782  2063.632
 783  2178.913
 784  2294.556
 785  2339.444
 786  2230.058
 787  2039.651
 788  1992.721
 789  1976.01
 790  2131.185
 791  2198.851
 792  2176.874
 793  2152.226
 794  2233.141
 795  2232.433
 796  2149.119
 797  2189.86
 798  2418.588
 799  2290.648
 800  2256.185
 801  2241.894
 802  2269.266
 803  2156.453
 804  2193.909
 805  2194.956
 806  2139.427
 807  2031.217
 808  2114.037
 809  2207.008
 810  2090.727
 811  2106.896
 812  2099.6
 813  2145.209
 814  2228.67
 815  2271.935
 816  2294.285
 817  2153.377
 818  1992.618
 819  1942.322
 820  2030.616
 821  2211.789
 822  2223.039
 823  2139.299
 824  2122.27
 825  2047.977
 826  2057.214
 827  2034.034
 828  2184.592
 829  2298.868
 830  2283.031
 831  2365.646
 832  2307.151
 833  2172.809
 834  1952.978
 835  1851.075
 836  2001.139
 837  2065.51
 838  2043.789
 839  2043.103
 840  2002.015
 841  2035.518
 842  2150.68
 843  2285.618
 844  2309.056
 845  2175.02
 846  2181.838
 847  2160.217
 848  2131.09
 849  2127.062
 850  2170.262
 851  2171.876
 852  1871.379
 853  1757.563
 854  1702.682
 855  1817.714
 856  1904.349
 857  2148.472
 858  2177.144
 859  2203.929
 860  2162.599
 861  2275.312
 862  2302.099
 863  2383.91
 864  2463.258
 865  2495.448
 866  2220.537
 867  1994.508
 868  1989.916
 869  2112.114
 870  2187.007
 871  2059.17
 872  2190.107
 873  2281.018
 874  2287.988
 875  2123.369
 876  2133.202
 877  2142.496
 878  2233.058
 879  2357.901
 880  2497.497
 881  2355.496
 882  2362.21
 883  2119.963
 884  2104.537
 885  2006.878
 886  2076.522
 887  2138.209
 888  2223.556
 889  2137.571
 890  1997.32
 891  1824.672
 892  1759.26
 893  1749.802
 894  1868.34
 895  1938.652
 896  2087.47
 897  1979.829
 898  1973.075
 899  1913.144
 900  2009.262
 901  2114.75
 902  2122.587
 903  2111.383
 904  1910.073
 905  1908.88
 906  1883.497
 907  2043.387
 908  2060.135
 909  2238.25
 910  2308.773
 911  2277.365
 912  2116.416
 913  2280.474
 914  2458.061
 915  2429.926
 916  2254.689
 917  2258.149
 918  2252.265
 919  2032.142
 920  1828.525
 921  1912.745
 922  1922.083
 923  1888.463
 924  2006.332
 925  2265.835
 926  2297.438
 927  2258.844
 928  2235.229
 929  2214.047
 930  2161.983
 931  2245.964
 932  2224.469
 933  2153.49
 934  2070.233
 935  2216.775
 936  2226.385
 937  2022.84
 938  2044.112
 939  2170.705
 940  2345.318
 941  2257.943
 942  2263.744
 943  2216.179
 944  2204.292
 945  2165.062
 946  2384.795
 947  2434.108
 948  2300.374
 949  2248.457
 950  2267.909
 951  2196.036
 952  2070.567
 953  2144.162
 954  2257.154
 955  2264.658
 956  2212.619
 957  2268.093
 958  2132.838
 959  1999.87
 960  2005.693
 961  2261.734
 962  2333.05
 963  2429.943
 964  2217.393
 965  2096.135
 966  1886.314
 967  1960.057
 968  2065.131
 969  2138.791
 970  2118.575
 971  1944.122
 972  2086.712
 973  2163.022
 974  2271.222
 975  2270.369
 976  2102.514
 977  2081.78
 978  2172.969
 979  2418.328
 980  2439.33
 981  2354.98
 982  2374.861
 983  2273.481
 984  2323.854
 985  2187.521
 986  2198.566
 987  2029.862
 988  2058.171
 989  2081.755
 990  2118.333
 991  2070.779
 992  2120.37
 993  2011.263
 994  2122.705
 995  2182.727
 996  2381.861
 997  2282.662
 998  2125.25
 999  2100.634
1000  2150.181
1001  2009.609
1002  1861.418
1003  1996.71
1004  2133.403
1005  2311.371
1006  2242.385
1007  2162.252
1008  1908.939
1009  2008.462
1010  2167.217
1011  2320.447
1012  2293.375
1013  2332.381
1014  2390.572
1015  2223.758
1016  2056.51
1017  2003.007
1018  1982.624
1019  1943.573
1020  2012.796
1021  2028.163
1022  2069.825
1023  1980.178
