# Input file       =  1183768721.108474_cleaned.dat
# Candidate        =  PSR_0332+5434
# Telescope        =  AR
# Epoch_topo       =  57945.027084588823
# Epoch_bary       =  N/A
# T_sample         =  0.002
# Data Folded      =  7208960
# Data Avg         =  0.30675249535654 
# Data StdDev      =  6.37957543168881 
# Profile Bins     =  256
# Profile Avg      =  8638.17251475266 
# Profile StdDev   =  1070.55282565186 
# Reduced chi-sqr  =  0.541
# Prob(Noise)      <  1   (~0.0 sigma)
# P_topo (ms)      =  714.481634437662  +/- 6.22e-05
# P'_topo (s/s)    =  -0                +/- 3.34e-11
# P''_topo (s/s^2) =  0                 +/- 1.5e-14
# P_bary (ms)      =  N/A
# P'_bary (s/s)    =  N/A
# P''_bary (s/s^2) =  N/A
# P_orb (s)        =  N/A
# asin(i)/c (s)    =  N/A
# eccentricity     =  N/A
# w (rad)          =  N/A
# T_peri           =  N/A
######################################################
   0  8512.239
   1  9036.912
   2  8016.351
   3  7604.32
   4  8415.778
   5  8553.672
   6  8462.422
   7  8406.72
   8  8343.097
   9  8440.624
  10  7448.723
  11  7841.249
  12  8660.593
  13  9160.102
  14  9705.218
  15  8682.552
  16  7852.339
  17  9618.23
  18  9066.934
  19  8719.104
  20  9014.629
  21  9127.082
  22  9532.929
  23  8754.948
  24  8447.307
  25  8285.352
  26  8446.641
  27  7732.101
  28  8188.43
  29  8682.492
  30  9494.375
  31  8046.045
  32  8239.361
  33  8052.255
  34  7973.513
  35  8392.415
  36  8034.762
  37  8338.053
  38  9207.576
  39  8573.271
  40  7679.337
  41  7996.314
  42  8785.368
  43  8461.555
  44  8445.743
  45  9131.192
  46  8677.605
  47  9578.916
  48  8901.531
  49  9551.95
  50  9048.665
  51  9127.69
  52  7632.136
  53  8611.772
  54  9392.979
  55  9358.611
  56  8350.758
  57  7677.599
  58  9296.152
  59  9978.271
  60  9165.155
  61  7464.389
  62  8576.945
  63  9372.998
  64  8754.977
  65  8401.564
  66  8187.284
  67  9267.643
  68  8458.292
  69  8883.377
  70  9130.974
  71  8834.121
  72  9057.583
  73  8595.163
  74  8091.09
  75  9583.241
  76  8946.221
  77  8271.636
  78  8793.07
  79  9082.308
  80  9132.445
  81  7839.376
  82  9186.444
  83  9324.185
  84  8584.444
  85  8439.034
  86  8761.204
  87  9490.683
  88  8765.376
  89  7890.089
  90  8299.464
  91  9000.853
  92  9650.007
  93  7743.154
  94  7363.732
  95  8463.722
  96  10192.84
  97  8802.261
  98  6961.843
  99  7626.994
 100  9587.029
 101  8771.749
 102  7700.556
 103  8016.493
 104  9506.532
 105  9110.246
 106  8034.133
 107  7963.222
 108  9181.617
 109  9054.29
 110  9021.724
 111  9874.34
 112  9536.255
 113  9837.577
 114  8647.174
 115  8502.848
 116  8635.567
 117  8794.543
 118  8789.984
 119  8253.138
 120  8205.013
 121  8506.436
 122  8820.026
 123  8981.813
 124  9045.672
 125  9252.729
 126  8286.589
 127  8331.281
 128  9443.601
 129  9699.938
 130  8702.747
 131  7406.382
 132  8302.953
 133  9792.545
 134  8863.588
 135  7820.844
 136  7502.219
 137  9568.885
 138  9691.479
 139  8350.876
 140  6548.453
 141  8359.186
 142  8862.754
 143  7836.822
 144  8063.797
 145  9596.725
 146  9566.562
 147  8006.508
 148  8396.565
 149  8887.275
 150  9361.095
 151  8444.907
 152  8189.729
 153  8349.401
 154  9434.524
 155  8392.087
 156  7712.452
 157  8214.644
 158  7793.507
 159  8496.555
 160  8937.382
 161  9571.104
 162  11651.18
 163  12066.94
 164  9996.593
 165  8161.21
 166  9007.179
 167  8272.045
 168  7837.253
 169  8687.773
 170  9663.456
 171  8905.454
 172  7548.644
 173  7764.553
 174  8980.644
 175  8467.379
 176  7374.389
 177  7950.649
 178  8705.625
 179  9085.358
 180  7828.252
 181  7751.255
 182  7989.111
 183  7996.613
 184  7420.902
 185  8288.362
 186  8865.621
 187  9774.995
 188  8425.706
 189  8060.702
 190  8818.117
 191  8771.299
 192  9044.099
 193  8638.688
 194  8386.26
 195  8333.842
 196  8973.33
 197  8239.747
 198  8780.101
 199  9045.285
 200  8965.09
 201  8603.486
 202  8539.913
 203  8622.453
 204  8563.442
 205  8470.52
 206  8327.139
 207  8987.195
 208  8535.817
 209  8050.01
 210  8316.998
 211  8917.777
 212  8607.237
 213  7314.651
 214  8239.865
 215  9019.589
 216  9425.44
 217  8269.841
 218  8843.281
 219  8754.399
 220  9457.998
 221  8337.386
 222  8316.182
 223  7231.692
 224  7961.186
 225  8290.262
 226  7756.806
 227  8834.566
 228  9206.824
 229  8980.756
 230  7610.505
 231  8634.944
 232  8839.664
 233  8665.984
 234  8467.578
 235  9101.453
 236  9069.518
 237  9129.418
 238  8711.419
 239  8749.219
 240  8837.188
 241  8355.117
 242  8298.156
 243  8633.676
 244  8634.94
 245  9557.558
 246  8879.832
 247  8301.055
 248  8364.919
 249  8925.275
 250  8042.887
 251  8806.509
 252  8334.048
 253  9315.8
 254  8113.061
 255  8038.316
