# Input file       =  1183439200.089815_cleaned.dat
# Candidate        =  PSR_0332+5434
# Telescope        =  AR
# Epoch_topo       =  57941.213183909895
# Epoch_bary       =  N/A
# T_sample         =  0.002
# Data Folded      =  7340032
# Data Avg         =  0.0444988543480607
# Data StdDev      =  0.999927402424868
# Profile Bins     =  512
# Profile Avg      =  637.930569293347 
# Profile StdDev   =  119.724344048662 
# Reduced chi-sqr  =  1.491
# Prob(Noise)      <  3.42e-12   (~6.9 sigma)
# P_topo (ms)      =  714.484418191087  +/- 0.000452
# P'_topo (s/s)    =  -0                +/- 2.39e-10
# P''_topo (s/s^2) =  0                 +/- 1.05e-13
# P_bary (ms)      =  N/A
# P'_bary (s/s)    =  N/A
# P''_bary (s/s^2) =  N/A
# P_orb (s)        =  N/A
# asin(i)/c (s)    =  N/A
# eccentricity     =  N/A
# w (rad)          =  N/A
# T_peri           =  N/A
######################################################
   0  603.5091
   1  684.0501
   2  735.7052
   3  804.1001
   4  712.5099
   5  650.9196
   6  801.8856
   7  759.5898
   8  630.3998
   9  697.3409
  10  732.1769
  11  614.3653
  12  591.4294
  13  694.6722
  14  777.8651
  15  629.7114
  16  620.6094
  17  656.7155
  18  633.8733
  19  583.0142
  20  586.3315
  21  652.0605
  22  578.1984
  23  612.6116
  24  609.8455
  25  564.2904
  26  563.4031
  27  598.3004
  28  618.5107
  29  466.5512
  30  562.5849
  31  621.8013
  32  647.9509
  33  616.5953
  34  567.8619
  35  508.6783
  36  584.3742
  37  733.2438
  38  635.2466
  39  599.4012
  40  603.6619
  41  633.074
  42  609.9635
  43  575.0458
  44  562.9502
  45  553.1846
  46  599.6595
  47  541.0355
  48  435.9323
  49  589.426
  50  586.7092
  51  519.724
  52  455.0842
  53  477.492
  54  605.7946
  55  561.4438
  56  624.0569
  57  645.9771
  58  516.4407
  59  520.6987
  60  633.1381
  61  591.4409
  62  558.4802
  63  590.0657
  64  544.8375
  65  626.8783
  66  664.8246
  67  657.3604
  68  622.955
  69  637.1069
  70  634.45
  71  590.9778
  72  604.2933
  73  686.0864
  74  582.7229
  75  541.422
  76  549.4436
  77  544.8516
  78  592.1799
  79  606.2497
  80  656.5781
  81  634.4656
  82  638.9403
  83  605.4285
  84  638.9594
  85  607.1343
  86  679.3387
  87  591.7681
  88  669.4122
  89  644.8004
  90  503.6215
  91  682.5446
  92  704.6168
  93  713.7839
  94  612.9824
  95  604.4827
  96  527.3484
  97  508.6839
  98  660.5966
  99  579.8448
 100  580.9937
 101  705.4666
 102  712.3073
 103  604.446
 104  543.1813
 105  498.7474
 106  647.8917
 107  798.281
 108  589.5905
 109  449.7145
 110  602.064
 111  621.478
 112  549.8989
 113  719.6654
 114  713.4496
 115  693.195
 116  652.4495
 117  740.8075
 118  697.9003
 119  665.7703
 120  723.9466
 121  694.962
 122  699.5853
 123  600.2116
 124  565.8188
 125  677.4171
 126  633.7072
 127  647.3627
 128  631.7949
 129  677.1486
 130  551.8512
 131  630.2632
 132  741.3528
 133  695.6801
 134  702.4623
 135  679.6149
 136  633.3663
 137  765.4389
 138  862.359
 139  731.2546
 140  700.8276
 141  801.3273
 142  896.4551
 143  859.9341
 144  834.9622
 145  807.6093
 146  765.4274
 147  780.6348
 148  816.8164
 149  847.634
 150  882.5922
 151  787.4382
 152  704.3499
 153  727.129
 154  825.9876
 155  900.5726
 156  1111.604
 157  1192.87
 158  1186.5
 159  1104.727
 160  1232.587
 161  1038.18
 162  807.7858
 163  711.9454
 164  615.2714
 165  715.2988
 166  656.6552
 167  781.16
 168  818.8838
 169  817.456
 170  783.4126
 171  712.8636
 172  774.7201
 173  700.0959
 174  815.9528
 175  798.2845
 176  715.868
 177  752.5761
 178  764.7809
 179  720.627
 180  826.3015
 181  732.0618
 182  733.1529
 183  683.2754
 184  716.8963
 185  762.4916
 186  717.5542
 187  697.3193
 188  584.9504
 189  611.0282
 190  764.5255
 191  788.1372
 192  716.921
 193  725.0746
 194  642.8174
 195  550.8381
 196  710.5835
 197  708.0406
 198  647.1915
 199  650.617
 200  614.2777
 201  669.0077
 202  668.067
 203  618.0394
 204  513.6422
 205  483.4921
 206  661.4343
 207  765.9677
 208  707.3303
 209  672.6365
 210  564.6973
 211  505.2385
 212  508.3896
 213  602.7854
 214  479.716
 215  515.4203
 216  481.6701
 217  437.9965
 218  546.887
 219  492.0326
 220  438.4663
 221  402.5744
 222  569.5832
 223  735.8521
 224  711.3282
 225  681.4615
 226  705.5521
 227  619.749
 228  624.0399
 229  557.5051
 230  621.9549
 231  673.2516
 232  614.8684
 233  595.5616
 234  623.1426
 235  615.4828
 236  574.7179
 237  528.1133
 238  532.3593
 239  583.3411
 240  454.4334
 241  447.5377
 242  649.0297
 243  614.838
 244  526.0065
 245  464.5655
 246  480.9701
 247  540.7836
 248  516.6162
 249  394.6559
 250  475.9035
 251  513.3239
 252  557.9909
 253  535.3715
 254  534.0231
 255  469.007
 256  452.2753
 257  488.927
 258  545.3761
 259  633.6562
 260  679.9828
 261  525.9519
 262  573.793
 263  517.1215
 264  621.3298
 265  594.1184
 266  531.9359
 267  446.1813
 268  587.5958
 269  713.1513
 270  684.2951
 271  672.1761
 272  635.9326
 273  814.6556
 274  829.7229
 275  793.6183
 276  750.6049
 277  703.4022
 278  656.438
 279  647.1427
 280  686.2775
 281  679.3578
 282  687.8396
 283  676.3441
 284  582.7943
 285  593.0184
 286  600.9789
 287  630.5656
 288  497.8228
 289  498.3262
 290  531.5549
 291  506.3802
 292  662.8657
 293  620.1861
 294  590.2348
 295  496.4185
 296  483.5448
 297  461.6054
 298  588.4962
 299  645.0212
 300  533.215
 301  527.9033
 302  549.1671
 303  547.5274
 304  500.6289
 305  563.8691
 306  513.553
 307  503.3453
 308  601.2235
 309  684.2885
 310  660.4383
 311  664.355
 312  535.3903
 313  654.0479
 314  651.407
 315  559.1915
 316  512.6708
 317  524.063
 318  633.0429
 319  543.937
 320  610.6228
 321  659.6743
 322  550.6587
 323  494.264
 324  561.5104
 325  637.1129
 326  650.4095
 327  562.0995
 328  517.4072
 329  583.7908
 330  609.0874
 331  682.2478
 332  697.9843
 333  471.2236
 334  525.2267
 335  718.0457
 336  663.7479
 337  634.4426
 338  585.7507
 339  586.5492
 340  625.5865
 341  586.7811
 342  530.9979
 343  574.2353
 344  571.4114
 345  571.536
 346  607.0008
 347  646.7615
 348  631.8292
 349  572.767
 350  648.7039
 351  692.2714
 352  662.4373
 353  645.7924
 354  585.0665
 355  564.5397
 356  613.9938
 357  623.4543
 358  538.2534
 359  582.0105
 360  604.4102
 361  508.9388
 362  545.5712
 363  605.4059
 364  633.074
 365  675.2268
 366  665.0068
 367  670.4105
 368  604.4355
 369  588.9365
 370  563.9421
 371  496.2861
 372  450.173
 373  576.1132
 374  483.2956
 375  521.6563
 376  543.9478
 377  436.859
 378  521.6305
 379  543.9064
 380  506.7183
 381  390.0685
 382  463.9927
 383  645.2598
 384  685.7363
 385  666.7198
 386  608.7596
 387  601.4883
 388  660.8422
 389  750.1652
 390  709.2977
 391  656.2258
 392  695.3544
 393  700.3129
 394  634.7112
 395  664.0782
 396  736.1531
 397  678.7497
 398  600.2124
 399  657.3881
 400  744.7244
 401  656.5509
 402  623.936
 403  631.0841
 404  602.4374
 405  586.3156
 406  637.0474
 407  597.7308
 408  605.8448
 409  588.9369
 410  641.5651
 411  784.3576
 412  710.8651
 413  570.3849
 414  602.2364
 415  679.8079
 416  614.6543
 417  579.1002
 418  551.6106
 419  751.4545
 420  700.9692
 421  717.8557
 422  553.1155
 423  534.7122
 424  582.8624
 425  666.3146
 426  668.972
 427  548.149
 428  581.3452
 429  609.6797
 430  565.1951
 431  628.4686
 432  645.2341
 433  667.4283
 434  701.0864
 435  550.7199
 436  627.2828
 437  655.4581
 438  681.4211
 439  631.2589
 440  512.6983
 441  558.4456
 442  638.7692
 443  608.1273
 444  569.528
 445  582.7578
 446  630.428
 447  559.0487
 448  619.6402
 449  653.3116
 450  533.3261
 451  504.2675
 452  725.9745
 453  759.4021
 454  756.6171
 455  645.386
 456  629.0466
 457  678.3184
 458  709.9702
 459  634.4169
 460  727.8958
 461  681.6713
 462  642.2383
 463  680.8068
 464  689.6971
 465  774.926
 466  734.8836
 467  704.7103
 468  730.2368
 469  788.3591
 470  766.0761
 471  759.1319
 472  766.2919
 473  752.2659
 474  675.3637
 475  701.9081
 476  636.5098
 477  727.4356
 478  764.178
 479  635.6318
 480  656.4462
 481  687.6014
 482  746.1334
 483  729.2101
 484  677.6068
 485  611.5762
 486  659.6794
 487  673.9088
 488  712.9396
 489  778.1139
 490  755.7333
 491  792.5555
 492  761.7051
 493  807.8195
 494  772.3822
 495  617.7949
 496  587.2346
 497  611.4335
 498  606.8436
 499  655.9973
 500  654.6369
 501  618.4225
 502  605.2662
 503  678.4462
 504  657.7907
 505  693.506
 506  620.4957
 507  602.6731
 508  698.123
 509  688.2836
 510  690.735
 511  520.551
