# Input file       =  1184056858.110486_cleaned.dat
# Candidate        =  PSR_0332+5434
# Telescope        =  AR
# Epoch_topo       =  57948.362003593589
# Epoch_bary       =  N/A
# T_sample         =  0.002
# Data Folded      =  7340032
# Data Avg         =  0.189337570251415
# Data StdDev      =  4.68225900072534 
# Profile Bins     =  1024
# Profile Avg      =  1357.14241053743 
# Profile StdDev   =  396.418972477217 
# Reduced chi-sqr  =  0.624
# Prob(Noise)      <  1   (~0.0 sigma)
# P_topo (ms)      =  714.479683258899  +/- 0.000432
# P'_topo (s/s)    =  -0                +/- 2.28e-10
# P''_topo (s/s^2) =  0                 +/- 1.01e-13
# P_bary (ms)      =  N/A
# P'_bary (s/s)    =  N/A
# P''_bary (s/s^2) =  N/A
# P_orb (s)        =  N/A
# asin(i)/c (s)    =  N/A
# eccentricity     =  N/A
# w (rad)          =  N/A
# T_peri           =  N/A
######################################################
   0  1291.775
   1  1377.802
   2  1525.978
   3  1660.721
   4  1551.102
   5  1451.184
   6  1394.214
   7  1436.123
   8  1400.676
   9  1334.133
  10  1398.192
  11  1374.253
  12  1374.797
  13  1281.837
  14  1355.441
  15  1337.863
  16  1385.754
  17  1264.244
  18  1182.556
  19  1069.791
  20  965.9541
  21  1007.269
  22  1009.024
  23  1150.648
  24  1095.034
  25  1192.998
  26  1199.472
  27  1195.471
  28  1156.01
  29  1183.562
  30  1108.872
  31  1051.047
  32  1128.715
  33  1130.859
  34  1207.982
  35  1167.407
  36  1251.732
  37  1223.921
  38  1214.213
  39  1274.571
  40  1407.613
  41  1451.242
  42  1231.572
  43  1186.934
  44  1191.551
  45  1313.279
  46  1232.876
  47  1276.79
  48  1356.247
  49  1444.603
  50  1493.043
  51  1553.703
  52  1551.624
  53  1615.32
  54  1565.151
  55  1512.059
  56  1334.098
  57  1214.95
  58  1305.64
  59  1252.911
  60  1171.521
  61  1071.257
  62  1165.82
  63  1183.478
  64  1164.236
  65  1221.948
  66  1349.692
  67  1448.41
  68  1493.928
  69  1440.417
  70  1357.386
  71  1358.498
  72  1510.249
  73  1578.518
  74  1475.263
  75  1313.486
  76  1381.127
  77  1370.764
  78  1415.106
  79  1296.88
  80  1403.375
  81  1354.582
  82  1381.172
  83  1344.556
  84  1277.723
  85  1267.053
  86  1186.067
  87  1346.128
  88  1312.961
  89  1298.244
  90  1224.583
  91  1192.382
  92  1105.873
  93  1089.459
  94  1184.739
  95  1236.067
  96  1295.35
  97  1192.144
  98  1178.36
  99  1073.878
 100  1113.21
 101  1060.119
 102  1207.647
 103  1264.987
 104  1306.398
 105  1355.979
 106  1334.38
 107  1397.925
 108  1212.528
 109  1210.392
 110  1146.572
 111  1332.878
 112  1424.343
 113  1332.507
 114  1249.514
 115  1229.361
 116  1379.51
 117  1424.844
 118  1456.006
 119  1371.871
 120  1391.804
 121  1436.039
 122  1514.942
 123  1484.677
 124  1340.161
 125  1420.579
 126  1543.391
 127  1638.577
 128  1606.563
 129  1518.35
 130  1506.671
 131  1355.219
 132  1362.867
 133  1396.111
 134  1511.543
 135  1419.271
 136  1326.997
 137  1236.366
 138  1239.734
 139  1217.411
 140  1346.975
 141  1300.454
 142  1354.669
 143  1346.908
 144  1355.911
 145  1237.296
 146  1137.92
 147  1251.529
 148  1360.95
 149  1447.194
 150  1539.984
 151  1733.062
 152  1656.901
 153  1568.436
 154  1562.986
 155  1678.077
 156  1636.866
 157  1539.301
 158  1655.314
 159  1743.283
 160  1645.715
 161  1513.174
 162  1607.801
 163  1566.964
 164  1730.202
 165  1682.735
 166  1864.037
 167  1705.28
 168  1631.17
 169  1642.311
 170  1684.525
 171  1761.046
 172  1630.119
 173  1611.108
 174  1474.526
 175  1455.284
 176  1422.465
 177  1550.29
 178  1510.204
 179  1581.552
 180  1582.777
 181  1636.399
 182  1654.435
 183  1638.185
 184  1600.473
 185  1521.389
 186  1610.323
 187  1650.061
 188  1664.94
 189  1533.421
 190  1590.518
 191  1575.848
 192  1575.755
 193  1379.703
 194  1328.259
 195  1382.12
 196  1398.024
 197  1388.741
 198  1371.456
 199  1400.28
 200  1474.836
 201  1552.109
 202  1553.279
 203  1470.029
 204  1509.749
 205  1433.314
 206  1376.571
 207  1328.297
 208  1475.701
 209  1485.765
 210  1332.865
 211  1312.613
 212  1300.819
 213  1359.438
 214  1235.162
 215  1184.262
 216  1098.711
 217  1051.754
 218  1139.596
 219  1201.891
 220  1226.176
 221  1194.244
 222  1147.662
 223  1047.347
 224  968.806
 225  860.8215
 226  941.7224
 227  1020.922
 228  1119.463
 229  1078.56
 230  1164.598
 231  1250.027
 232  1250.06
 233  1249.516
 234  1242.954
 235  1297.607
 236  1317.954
 237  1430.528
 238  1464.65
 239  1491.164
 240  1402.98
 241  1349.118
 242  1273.01
 243  1306.92
 244  1360.066
 245  1317.161
 246  1343.146
 247  1372.956
 248  1502.677
 249  1445.259
 250  1375.245
 251  1317.871
 252  1427.728
 253  1443.21
 254  1414.518
 255  1330.501
 256  1302.251
 257  1355.426
 258  1314.077
 259  1283.984
 260  1123.742
 261  1241.036
 262  1326.483
 263  1438.304
 264  1305.745
 265  1266.656
 266  1324.278
 267  1298.934
 268  1207.186
 269  1155.878
 270  1207.671
 271  1210.368
 272  1191.966
 273  1235.236
 274  1188.72
 275  1031.441
 276  1014.17
 277  1170.102
 278  1192.599
 279  1098.481
 280  997.7057
 281  1032.418
 282  1077.805
 283  1024.935
 284  1083.554
 285  1060.428
 286  1125.531
 287  1157.922
 288  1229.132
 289  1254.996
 290  1209.682
 291  1261.462
 292  1328.744
 293  1284.414
 294  1289.618
 295  1250.62
 296  1271.654
 297  1288.579
 298  1346.886
 299  1503.057
 300  1335.08
 301  1339.891
 302  1312.348
 303  1347.58
 304  1242.938
 305  1295.797
 306  1342.622
 307  1405.75
 308  1432.607
 309  1472.605
 310  1480.059
 311  1456.016
 312  1538.047
 313  1593.722
 314  1639.639
 315  1520.199
 316  1488.588
 317  1452.24
 318  1488.659
 319  1613.006
 320  1643.457
 321  1673.553
 322  1559.956
 323  1517.806
 324  1441.127
 325  1371.913
 326  1286.599
 327  1300.678
 328  1270.682
 329  1369.479
 330  1464.89
 331  1468.702
 332  1415.222
 333  1357.049
 334  1399.73
 335  1432.553
 336  1447.329
 337  1390.09
 338  1298.817
 339  1211.599
 340  1166.694
 341  1237.889
 342  1162.494
 343  1156.547
 344  1117.007
 345  1267.43
 346  1306.698
 347  1267.248
 348  1266.764
 349  1435.741
 350  1449.082
 351  1352.95
 352  1373.896
 353  1409.167
 354  1438.806
 355  1440.389
 356  1509.305
 357  1515.764
 358  1351.121
 359  1417.89
 360  1354.183
 361  1369.068
 362  1375.837
 363  1510.391
 364  1415.358
 365  1391.201
 366  1326.904
 367  1428.229
 368  1261.942
 369  1298.561
 370  1494.805
 371  1702.207
 372  1700.604
 373  1655.008
 374  1570.949
 375  1405.266
 376  1358.93
 377  1468.608
 378  1514.093
 379  1396.14
 380  1409.328
 381  1433.112
 382  1434.469
 383  1518.46
 384  1457.728
 385  1418.182
 386  1337.664
 387  1519.46
 388  1592.359
 389  1572.166
 390  1488.457
 391  1369.29
 392  1344.04
 393  1212.737
 394  1260.405
 395  1252.947
 396  1323.896
 397  1234.104
 398  1317.734
 399  1399.997
 400  1404.744
 401  1348.432
 402  1389.978
 403  1405.034
 404  1288.341
 405  1290.18
 406  1254.272
 407  1317.253
 408  1259.716
 409  1204.494
 410  1122.572
 411  1037.456
 412  1069.46
 413  1168.236
 414  1273.424
 415  1168.797
 416  1197.044
 417  1150.713
 418  1193.581
 419  1201.718
 420  1284.3
 421  1242.581
 422  1163.841
 423  1219.047
 424  1264.804
 425  1285.798
 426  1222.277
 427  1269.344
 428  1230.253
 429  1273.171
 430  1195.005
 431  1261.943
 432  1367.566
 433  1318.12
 434  1226.342
 435  1206.719
 436  1337.442
 437  1453.33
 438  1618.653
 439  1591.923
 440  1645.48
 441  1490.39
 442  1465.564
 443  1299.295
 444  1256.557
 445  1248.294
 446  1347.827
 447  1387.892
 448  1459.726
 449  1608.419
 450  1604.428
 451  1548.991
 452  1506.892
 453  1628.799
 454  1569.282
 455  1481.319
 456  1499.785
 457  1415.614
 458  1370.579
 459  1150.602
 460  1174.646
 461  1151.035
 462  1320.287
 463  1257.434
 464  1278.499
 465  1340.7
 466  1545.146
 467  1693.5
 468  1641.424
 469  1613.285
 470  1555.947
 471  1571.618
 472  1432.706
 473  1355.211
 474  1268.673
 475  1338.438
 476  1443.106
 477  1529.933
 478  1633.205
 479  1580.688
 480  1662.125
 481  1491.473
 482  1400.101
 483  1267.164
 484  1324.524
 485  1388.473
 486  1528.934
 487  1442.492
 488  1396.829
 489  1304.492
 490  1307.127
 491  1363.011
 492  1319.875
 493  1459.591
 494  1434.224
 495  1568.095
 496  1514.044
 497  1438.845
 498  1231.135
 499  1273.277
 500  1460.828
 501  1444.514
 502  1364.468
 503  1208.036
 504  1249.793
 505  1292.557
 506  1336.529
 507  1370.252
 508  1395.22
 509  1503.964
 510  1630.638
 511  1692.607
 512  1737.871
 513  1739.685
 514  1684.402
 515  1643.127
 516  1480.848
 517  1357.602
 518  1341.849
 519  1427.611
 520  1624.846
 521  1549.431
 522  1537.848
 523  1380.604
 524  1348.887
 525  1246.798
 526  1394.435
 527  1482.587
 528  1597.416
 529  1420.949
 530  1324.654
 531  1397.661
 532  1293.333
 533  1314.986
 534  1318.319
 535  1504.246
 536  1531.527
 537  1526.973
 538  1469.915
 539  1326.478
 540  1331.955
 541  1309.307
 542  1401.635
 543  1266.679
 544  1321.537
 545  1309.291
 546  1301.677
 547  1262.755
 548  1327.043
 549  1482.313
 550  1507.33
 551  1506.021
 552  1454.797
 553  1293.69
 554  1176.042
 555  1276.382
 556  1323.76
 557  1248.533
 558  1216.433
 559  1364.623
 560  1312.599
 561  1231.583
 562  1268.298
 563  1348.425
 564  1304.383
 565  1183.512
 566  1247.729
 567  1327.394
 568  1456.44
 569  1429.158
 570  1490.962
 571  1469.655
 572  1484.969
 573  1446.308
 574  1447.194
 575  1475.037
 576  1498.789
 577  1435.308
 578  1328.78
 579  1304.741
 580  1269.258
 581  1450.254
 582  1498.568
 583  1520.709
 584  1419.632
 585  1363.158
 586  1408.237
 587  1479.429
 588  1450.367
 589  1228.684
 590  1178.666
 591  1229.33
 592  1289.519
 593  1200.125
 594  1226.029
 595  1433.115
 596  1583.025
 597  1531.347
 598  1288.064
 599  1341.026
 600  1388.453
 601  1443.892
 602  1253.334
 603  1189.692
 604  1137.231
 605  1138.361
 606  1221.824
 607  1162.898
 608  1162.461
 609  1042.034
 610  1129.386
 611  1127.233
 612  1219.275
 613  1203.693
 614  1234.084
 615  1236.576
 616  1171.599
 617  1211.317
 618  1134.258
 619  1130.885
 620  1034.331
 621  1087.233
 622  1035.623
 623  1048.201
 624  1088.795
 625  1072.419
 626  1068.046
 627  1083.408
 628  1270.382
 629  1373.293
 630  1449.075
 631  1438.063
 632  1498.866
 633  1397.695
 634  1318.942
 635  1132.594
 636  1071.207
 637  1167.45
 638  1280.084
 639  1299.699
 640  1230.959
 641  1373.93
 642  1461.702
 643  1518.552
 644  1465.001
 645  1511.504
 646  1578.636
 647  1610.819
 648  1871.026
 649  1986.67
 650  2265.972
 651  2301.564
 652  2463.425
 653  2298.818
 654  2134.933
 655  1898.816
 656  1788.628
 657  1629.345
 658  1427.646
 659  1310.084
 660  1301.188
 661  1342.781
 662  1239.425
 663  1221.888
 664  1107.442
 665  1162.555
 666  1197.927
 667  1150.067
 668  1100.6
 669  1131.808
 670  1272.952
 671  1128.184
 672  1071.939
 673  1103.89
 674  1416.097
 675  1416.794
 676  1376.254
 677  1225.977
 678  1159.574
 679  1138.385
 680  1284.181
 681  1421.496
 682  1542.532
 683  1477.141
 684  1422.503
 685  1435.933
 686  1306.822
 687  1242.519
 688  1193.336
 689  1286.046
 690  1369.62
 691  1391.446
 692  1400.984
 693  1352.044
 694  1333.49
 695  1315.144
 696  1368.73
 697  1413.549
 698  1387.954
 699  1330.268
 700  1248.194
 701  1303.107
 702  1191.885
 703  1172.544
 704  1171.496
 705  1292.329
 706  1264.561
 707  1270.011
 708  1190.422
 709  1355.924
 710  1392.997
 711  1401.483
 712  1244.484
 713  1048.742
 714  1101.958
 715  1224.537
 716  1445.829
 717  1360.476
 718  1240.024
 719  1049.054
 720  1020.459
 721  1058.399
 722  1177.327
 723  1260.941
 724  1342.8
 725  1503.039
 726  1424.037
 727  1298.392
 728  1139.801
 729  1197.256
 730  1283.722
 731  1366.469
 732  1347.17
 733  1245.137
 734  1224.319
 735  1183.57
 736  1219.85
 737  1222.098
 738  1274.818
 739  1205.859
 740  1200.087
 741  1211.136
 742  1186.26
 743  1053.891
 744  983.3598
 745  964.7918
 746  1091.959
 747  1158.811
 748  1298.502
 749  1336.996
 750  1349.63
 751  1365.634
 752  1442.89
 753  1402.154
 754  1262.757
 755  1153.267
 756  1190.11
 757  1196.845
 758  1285.663
 759  1188.917
 760  1208.278
 761  1167.96
 762  1309.978
 763  1369.459
 764  1297.562
 765  1303.033
 766  1276.553
 767  1456.892
 768  1408.105
 769  1440.727
 770  1337.697
 771  1335.592
 772  1186.994
 773  1126.737
 774  1155.556
 775  1340.591
 776  1435.607
 777  1348.738
 778  1462.225
 779  1430.607
 780  1406.641
 781  1264.604
 782  1377.811
 783  1379.809
 784  1417.81
 785  1411.491
 786  1349.716
 787  1280.166
 788  1333.349
 789  1452.899
 790  1429.455
 791  1366.537
 792  1337.663
 793  1431.603
 794  1348.077
 795  1307.329
 796  1213.876
 797  1232.667
 798  1309.974
 799  1436.091
 800  1582.202
 801  1430.77
 802  1417.195
 803  1312.799
 804  1305.331
 805  1280.371
 806  1377.305
 807  1443.111
 808  1397.141
 809  1447.657
 810  1416.137
 811  1368.966
 812  1312.774
 813  1409.069
 814  1300.854
 815  1299.615
 816  1253.108
 817  1436.298
 818  1483.417
 819  1469.772
 820  1401.694
 821  1376.795
 822  1516.106
 823  1674.726
 824  1872.361
 825  1794.21
 826  1587.291
 827  1492.948
 828  1544.185
 829  1656.359
 830  1586.274
 831  1524.502
 832  1453.849
 833  1403.768
 834  1464.352
 835  1475.171
 836  1463.041
 837  1501.204
 838  1503.711
 839  1486.534
 840  1482.469
 841  1411.443
 842  1404.794
 843  1361.348
 844  1491.94
 845  1563.494
 846  1668.524
 847  1501.376
 848  1530.828
 849  1467.996
 850  1519.717
 851  1439.748
 852  1353.447
 853  1429.493
 854  1446.681
 855  1547.786
 856  1516.229
 857  1490.584
 858  1455.552
 859  1490.082
 860  1526.85
 861  1445.26
 862  1376.447
 863  1381.6
 864  1573.262
 865  1511.74
 866  1440.51
 867  1391.781
 868  1557.86
 869  1539.034
 870  1520.623
 871  1495.491
 872  1476.359
 873  1520.076
 874  1472.436
 875  1483.295
 876  1370.317
 877  1423.533
 878  1388.031
 879  1396.11
 880  1260.864
 881  1380.658
 882  1341.769
 883  1400.933
 884  1372.601
 885  1313.203
 886  1333.374
 887  1245.731
 888  1287.741
 889  1277.554
 890  1246.146
 891  1110.456
 892  1157.7
 893  1349.235
 894  1429.616
 895  1391.467
 896  1413.165
 897  1407.71
 898  1409.214
 899  1491.59
 900  1418.079
 901  1443.963
 902  1400.963
 903  1439.398
 904  1404.136
 905  1407.575
 906  1418.514
 907  1320.453
 908  1207.786
 909  1167.461
 910  1250.181
 911  1255.116
 912  1206.939
 913  1332.475
 914  1385.374
 915  1262.106
 916  1212.77
 917  1312.108
 918  1431.588
 919  1402.855
 920  1299.446
 921  1326.87
 922  1256.96
 923  1419.243
 924  1466.675
 925  1465.909
 926  1351.111
 927  1304.616
 928  1414.936
 929  1364.015
 930  1307.757
 931  1186.263
 932  1311.868
 933  1385.77
 934  1448.424
 935  1373.61
 936  1426.815
 937  1508.607
 938  1470.845
 939  1488.578
 940  1424.873
 941  1579.751
 942  1560.615
 943  1545.791
 944  1442.109
 945  1500.128
 946  1623.151
 947  1579.238
 948  1464.968
 949  1420.957
 950  1466.041
 951  1461.396
 952  1335.381
 953  1342.691
 954  1449.401
 955  1440.37
 956  1310.49
 957  1229.854
 958  1306.16
 959  1286.314
 960  1217.505
 961  1268.198
 962  1115.881
 963  951.1724
 964  813.1001
 965  854.3415
 966  841.7324
 967  800.2172
 968  842.5059
 969  888.0674
 970  1050.46
 971  1064.041
 972  1216.34
 973  1173.953
 974  1291.832
 975  1320.135
 976  1293.519
 977  1253.363
 978  1150.235
 979  1249.79
 980  1238.054
 981  1309.715
 982  1324.594
 983  1407.668
 984  1308.456
 985  1292.351
 986  1129.727
 987  1151.926
 988  1184.486
 989  1220.314
 990  1273.518
 991  1323.576
 992  1381.707
 993  1305.305
 994  1349.408
 995  1345.812
 996  1493.552
 997  1527.467
 998  1555.306
 999  1550.751
1000  1510.641
1001  1555.899
1002  1523.014
1003  1490.362
1004  1362.734
1005  1412.324
1006  1401.973
1007  1395.54
1008  1316.388
1009  1387.099
1010  1437.62
1011  1379.806
1012  1366.935
1013  1252.863
1014  1423.798
1015  1423.332
1016  1553.835
1017  1379.666
1018  1362.406
1019  1192.581
1020  1140.27
1021  1047.628
1022  1183.841
1023  1230.546
