# Input file       =  1184731253.101969_cleaned.dat
# Candidate        =  PSR_0332+5434
# Telescope        =  AR
# Epoch_topo       =  57956.167501180200
# Epoch_bary       =  N/A
# T_sample         =  0.002
# Data Folded      =  7340032
# Data Avg         =  0.236352305645205
# Data StdDev      =  7.17616389826472 
# Profile Bins     =  1024
# Profile Avg      =  1693.66289418703 
# Profile StdDev   =  607.563041351944 
# Reduced chi-sqr  =  1.364
# Prob(Noise)      <  5.58e-14   (~7.4 sigma)
# P_topo (ms)      =  714.474457140744  +/- 0.000211
# P'_topo (s/s)    =  -0                +/- 1.11e-10
# P''_topo (s/s^2) =  0                 +/- 4.92e-14
# P_bary (ms)      =  N/A
# P'_bary (s/s)    =  N/A
# P''_bary (s/s^2) =  N/A
# P_orb (s)        =  N/A
# asin(i)/c (s)    =  N/A
# eccentricity     =  N/A
# w (rad)          =  N/A
# T_peri           =  N/A
######################################################
   0  1603.089
   1  1323.48
   2  1307.194
   3  1477.175
   4  1590.041
   5  1535.911
   6  1891.679
   7  1873.794
   8  1931.708
   9  1876.273
  10  1860.292
  11  1741.006
  12  1455.649
  13  1339.801
  14  1523.386
  15  1545.214
  16  1504.182
  17  1363.144
  18  1481.062
  19  1554.515
  20  1461.294
  21  1632.414
  22  1969.505
  23  1789.195
  24  1692.156
  25  1478.228
  26  1519.641
  27  1281.776
  28  1447.79
  29  1715.126
  30  1710.226
  31  1378.475
  32  1085.208
  33  1282.693
  34  1294.65
  35  1481.339
  36  1537.129
  37  1558.746
  38  1790.95
  39  1653.195
  40  1715.255
  41  1406.385
  42  1473.945
  43  1486.241
  44  1408.511
  45  1395.233
  46  1384.567
  47  1331.049
  48  1169.419
  49  875.0679
  50  1061.266
  51  1215.034
  52  1348.839
  53  967.7623
  54  1019.019
  55  1066.566
  56  1272.565
  57  1523.896
  58  1585.63
  59  1651.709
  60  1479.918
  61  1556.085
  62  1545.855
  63  1531.336
  64  1426.168
  65  1103.18
  66  1052.257
  67  944.8309
  68  1042.526
  69  780.1499
  70  850.1104
  71  1129.615
  72  1166.502
  73  1312.379
  74  1600.012
  75  1928.532
  76  1909.642
  77  1632.643
  78  1849.086
  79  1578.354
  80  1541.729
  81  1563.342
  82  1745.128
  83  1640.949
  84  1321.206
  85  1284.098
  86  1341.893
  87  1561.476
  88  1975.03
  89  2175.849
  90  2217.645
  91  1893.616
  92  1612.651
  93  1305.843
  94  1175.765
  95  1322.859
  96  1685.744
  97  2020.343
  98  2199.883
  99  2240.908
 100  2432.56
 101  2259.245
 102  1975.437
 103  1516.186
 104  1303.189
 105  1216.942
 106  1212.017
 107  1314.269
 108  1342.857
 109  1323.446
 110  1633.378
 111  1810.291
 112  1485.652
 113  1394.225
 114  1443.467
 115  1693.562
 116  1438.774
 117  1285.752
 118  1078.693
 119  985.6455
 120  1117.391
 121  1411.301
 122  1474.67
 123  1225.741
 124  1067.851
 125  1505.24
 126  1555.244
 127  1449.626
 128  1306.138
 129  1574.991
 130  1528.583
 131  1469.179
 132  1479.489
 133  1286.923
 134  1135.573
 135  1071.855
 136  1314.712
 137  1488.076
 138  1600.25
 139  1749.807
 140  1489.958
 141  1445.392
 142  1347.907
 143  1401.277
 144  1582.568
 145  1494.216
 146  1523.427
 147  1115.665
 148  1294.196
 149  1314.676
 150  1408.187
 151  1392.036
 152  1590.026
 153  1917.664
 154  1836.75
 155  1626.77
 156  1467.799
 157  1355.189
 158  1464.315
 159  1354.384
 160  1398.01
 161  1057.3
 162  1114.539
 163  1031.597
 164  1162.616
 165  1007.924
 166  942.3022
 167  981.9737
 168  1112.19
 169  1568.253
 170  1569.886
 171  1559.361
 172  1420.71
 173  1372.798
 174  1344.981
 175  1028.602
 176  1000.168
 177  870.8199
 178  968.4745
 179  1062.6
 180  1336.32
 181  1301.18
 182  1158.861
 183  1420.232
 184  1553.566
 185  1518.297
 186  1110.177
 187  1004.102
 188  798.4033
 189  771.7455
 190  918.2057
 191  1089.12
 192  1243.457
 193  1274.911
 194  1564.111
 195  1368.482
 196  1517.62
 197  1569.764
 198  1451.887
 199  1253.739
 200  1029.388
 201  1174.439
 202  918.2932
 203  815.3094
 204  1187.761
 205  1610.711
 206  1731.191
 207  1733.886
 208  1702.095
 209  1794.476
 210  1660.811
 211  1602.117
 212  1605.674
 213  1642.612
 214  1935.209
 215  2067.565
 216  2064.738
 217  1930.083
 218  1802.301
 219  1631.788
 220  1666.189
 221  1545.824
 222  1582.328
 223  1673.03
 224  1661.341
 225  1463.37
 226  1395.576
 227  1491.187
 228  1708.912
 229  1831.445
 230  2100.846
 231  2040.404
 232  1840.007
 233  1777.669
 234  1752.027
 235  1606.261
 236  1492.861
 237  1238.386
 238  1174.178
 239  1039.358
 240  1250.669
 241  1642.444
 242  1798.387
 243  1876.107
 244  1658.541
 245  1616.374
 246  1739.736
 247  1782.755
 248  1474.393
 249  1119.363
 250  1383.025
 251  1411.627
 252  1476.128
 253  1233.218
 254  1587.512
 255  1647.61
 256  1676.723
 257  1544.706
 258  1591.64
 259  1643.794
 260  1544.325
 261  1313.011
 262  1325.651
 263  1423.218
 264  1698.496
 265  1604.688
 266  1622.123
 267  1522.756
 268  1407.508
 269  1120.319
 270  1111.363
 271  1431.015
 272  1669.604
 273  1556.859
 274  1504.227
 275  1548.124
 276  1591.959
 277  1318.953
 278  1415.375
 279  1434.658
 280  1390.859
 281  1268.721
 282  1202.272
 283  1224.724
 284  1147.319
 285  1012.107
 286  1024.793
 287  1148.587
 288  1361.693
 289  1257.058
 290  1146.97
 291  1187.415
 292  1149.715
 293  1029.901
 294  1059.615
 295  1183.587
 296  1074.203
 297  941.3279
 298  843.0059
 299  883.5165
 300  942.2004
 301  1251.88
 302  1467.549
 303  1233.746
 304  979.0103
 305  940.7087
 306  1048.761
 307  1268.298
 308  1367.741
 309  1401.239
 310  1289.759
 311  1089.532
 312  1293.345
 313  1392.659
 314  1443.049
 315  1159.64
 316  1168.271
 317  1370.882
 318  1834.89
 319  1826.989
 320  1584.225
 321  1307.492
 322  1333.718
 323  1266.026
 324  1075.671
 325  917.2929
 326  1024.101
 327  1114.846
 328  1063.303
 329  957.8546
 330  889.7293
 331  943.4034
 332  1117.254
 333  1234.594
 334  1301.737
 335  1049.398
 336  1207.275
 337  1183.286
 338  1347.523
 339  1525.743
 340  1720.375
 341  1902.615
 342  1556.412
 343  1223.217
 344  836.2593
 345  700.8298
 346  944.3955
 347  978.9289
 348  1030.393
 349  1241.18
 350  1374.479
 351  1413.797
 352  1378.295
 353  1382.383
 354  1472.738
 355  1375.552
 356  1476.708
 357  1561.876
 358  1554.529
 359  1297.06
 360  1226.357
 361  1475.01
 362  1627.658
 363  1557.181
 364  1378.313
 365  1392.4
 366  1425.927
 367  1495.315
 368  1704.673
 369  1677.463
 370  1619.956
 371  1590.373
 372  2071.819
 373  2317.357
 374  2189.917
 375  2104.368
 376  2020.681
 377  2258.224
 378  2193.622
 379  1937.094
 380  1872.78
 381  1772.157
 382  2029.97
 383  1883.718
 384  1967.129
 385  1850.893
 386  1984.482
 387  1953.489
 388  1840.413
 389  1849.962
 390  1949.252
 391  1976.633
 392  1864.401
 393  1564.77
 394  1504.095
 395  1431.308
 396  1587.45
 397  1358.448
 398  1615.75
 399  1810.165
 400  2332.574
 401  2338.831
 402  2307.196
 403  1942.229
 404  1718.161
 405  1648.486
 406  1543.597
 407  1350.931
 408  1203.834
 409  1450.404
 410  1609.654
 411  1634.318
 412  1834.523
 413  2005.8
 414  2110.828
 415  1835.472
 416  1787.505
 417  1850.128
 418  1783.675
 419  2017.697
 420  1861.478
 421  1790.941
 422  1655.514
 423  2084.191
 424  2246.598
 425  2114.781
 426  1867.023
 427  1859.719
 428  1892.149
 429  1412.114
 430  1287.177
 431  1242.848
 432  1247.116
 433  1365.72
 434  1556.521
 435  1924.717
 436  1785.833
 437  1501.789
 438  1648.305
 439  1717.359
 440  1647.167
 441  1241.526
 442  1233.012
 443  1303.088
 444  1229.932
 445  1207.698
 446  1297.219
 447  1555.311
 448  1526.531
 449  1628.651
 450  1526.5
 451  1725.274
 452  1477.681
 453  1414.602
 454  1127.836
 455  1251.388
 456  1455.369
 457  1749.816
 458  1684.722
 459  1647.224
 460  1704.623
 461  1828.546
 462  1778.114
 463  1645.088
 464  1790.699
 465  1909.281
 466  1908.919
 467  1870.166
 468  1790.521
 469  1724.348
 470  1651.317
 471  1637.048
 472  1611.624
 473  1515.543
 474  1467.678
 475  1556.137
 476  1755.686
 477  2066.976
 478  1673.239
 479  1570.675
 480  1621.056
 481  1963.809
 482  1804.814
 483  1758.942
 484  1819.467
 485  1887.042
 486  1703.517
 487  1616.746
 488  1401.2
 489  1308.252
 490  1178.77
 491  1413.831
 492  1501.63
 493  1570.916
 494  1720.222
 495  1796.894
 496  1956.464
 497  1871.101
 498  1982.63
 499  1820.058
 500  1512.972
 501  1226.364
 502  1181.581
 503  1221.438
 504  1199.767
 505  1094.5
 506  1416.492
 507  1596.733
 508  1899.389
 509  1960.251
 510  1984.809
 511  2214.049
 512  2320.01
 513  2307.601
 514  2054.634
 515  1951.461
 516  2092.724
 517  2133.921
 518  2106.552
 519  1809.689
 520  1548.191
 521  1406.539
 522  1563.288
 523  1641.746
 524  1634.275
 525  1735.359
 526  1843.598
 527  1863.33
 528  1941.686
 529  1951.392
 530  2052.106
 531  1808.273
 532  1956.813
 533  1875.832
 534  1992.984
 535  1987.439
 536  2202.591
 537  2230.031
 538  1904.22
 539  1704.75
 540  1439.422
 541  1505.047
 542  1356.821
 543  1182.909
 544  1235.753
 545  1023.144
 546  1162.315
 547  1395.823
 548  1746.097
 549  2022.851
 550  1971.406
 551  1865.627
 552  1693.027
 553  1722.678
 554  1537.518
 555  1376.146
 556  1279.129
 557  1412.076
 558  1567.365
 559  1634.736
 560  1786.673
 561  1882.951
 562  1904.67
 563  1930.597
 564  1653.977
 565  1770.213
 566  1629.271
 567  1585.981
 568  1638.718
 569  1608.954
 570  1888.899
 571  1766.965
 572  2006.568
 573  2377.046
 574  2531.954
 575  2654.951
 576  2445.999
 577  2400.138
 578  2195.458
 579  1999.491
 580  2098.258
 581  2523.557
 582  2608.568
 583  2397.685
 584  1951.664
 585  1696.14
 586  1914.792
 587  2261.359
 588  2399.901
 589  2404.783
 590  2272.923
 591  2305.103
 592  2396.171
 593  2435.592
 594  2488.814
 595  2307.29
 596  2259.89
 597  1789.268
 598  1645.932
 599  1410.872
 600  1700.671
 601  1652.831
 602  1695.001
 603  1728.423
 604  1809.7
 605  1970.668
 606  2087.975
 607  2229.299
 608  2213.266
 609  1881.677
 610  1629.113
 611  1699.832
 612  2088.671
 613  2175.526
 614  1981.195
 615  2044.27
 616  2347.14
 617  2576.559
 618  2418.141
 619  2191.155
 620  1980.197
 621  1805.041
 622  1968.329
 623  2177.61
 624  2393.328
 625  2112.806
 626  1979.4
 627  2088.597
 628  2570.05
 629  2822.44
 630  2712.225
 631  2428.288
 632  2080.838
 633  1747.526
 634  1742.66
 635  2015.493
 636  2168.489
 637  2288.116
 638  2018.257
 639  1873.791
 640  1795.017
 641  1699.407
 642  1874.57
 643  1929.215
 644  2320.157
 645  2479.879
 646  2669.643
 647  2843.061
 648  2840.946
 649  3143.262
 650  3204.885
 651  3192.199
 652  3036.428
 653  2970.785
 654  2656.333
 655  2668.556
 656  2518.706
 657  2517.128
 658  2315.22
 659  2273.536
 660  2529.615
 661  2498.679
 662  2440.73
 663  1999.835
 664  1808.987
 665  1674.502
 666  2006.839
 667  2177.334
 668  2128.414
 669  1997.571
 670  1887.692
 671  2074.563
 672  2250.49
 673  2438.998
 674  2469.06
 675  2407.118
 676  2106.605
 677  1968.821
 678  1718.087
 679  1866.911
 680  2067.99
 681  2277.442
 682  2433.632
 683  2449.674
 684  2300.932
 685  2369.845
 686  2247.64
 687  2254.934
 688  1982.756
 689  1794.194
 690  1645.593
 691  1515.48
 692  1910.178
 693  2163.256
 694  2673.92
 695  2341.855
 696  2153.806
 697  2180.273
 698  2306.406
 699  2274.511
 700  1827.778
 701  1708.516
 702  1669.103
 703  2089.653
 704  2196.937
 705  2258.111
 706  2092.183
 707  2195.546
 708  2382.877
 709  2314.191
 710  2205.084
 711  2009.336
 712  2008.676
 713  1740.605
 714  1624.607
 715  1691.884
 716  1924.023
 717  1970.395
 718  2285.168
 719  2498.403
 720  2655.799
 721  2394.577
 722  1921.165
 723  1593.528
 724  1586.983
 725  1677.771
 726  1874.544
 727  1874.769
 728  2077.884
 729  2001.383
 730  1916.509
 731  1881.717
 732  2153.758
 733  2363.28
 734  2439.833
 735  2169.328
 736  2286.718
 737  1989.518
 738  1892.859
 739  1570.545
 740  1472.55
 741  1524.649
 742  1620.7
 743  1683.672
 744  1461.435
 745  1447.495
 746  1581.241
 747  1864.026
 748  1729.88
 749  1742.03
 750  1532.081
 751  1313.777
 752  1114.911
 753  1295.955
 754  1531.214
 755  1508.042
 756  1438.194
 757  1666.953
 758  2021.984
 759  2141.238
 760  1975.639
 761  1846.844
 762  1600.803
 763  1723.261
 764  1705.056
 765  1618.735
 766  1434.877
 767  1261.151
 768  1529.336
 769  1379.161
 770  1452.817
 771  1542.22
 772  1913.414
 773  1693.072
 774  1661.172
 775  1728.438
 776  2141.607
 777  2181.024
 778  2014.209
 779  1869.749
 780  1601.031
 781  1462.058
 782  1506.69
 783  1507.342
 784  1307.968
 785  1213.161
 786  1374.123
 787  1501.887
 788  1541.955
 789  1576.533
 790  1708.303
 791  1545.862
 792  1654.389
 793  1731.339
 794  1863.997
 795  1690.452
 796  1808.771
 797  1689.327
 798  1743.594
 799  1581.398
 800  1556.678
 801  1393.604
 802  1631.922
 803  1975.653
 804  2047.089
 805  1927.59
 806  1804.115
 807  1934.471
 808  1849.262
 809  1898.503
 810  1801.564
 811  1780.87
 812  1747.201
 813  1830.121
 814  1721.146
 815  1828.462
 816  2168.881
 817  2487.179
 818  2377.205
 819  2095.031
 820  1879.385
 821  1814.58
 822  1735.452
 823  1668.301
 824  1621.094
 825  1689.391
 826  1913.28
 827  2001.792
 828  1856.171
 829  1922.435
 830  2076.058
 831  2191.93
 832  2040.397
 833  1960.445
 834  1928.503
 835  1891.422
 836  1839.901
 837  1815.897
 838  1725.138
 839  1526.618
 840  1618.567
 841  1735.082
 842  1782.226
 843  1829.187
 844  1869.069
 845  1914.153
 846  1713.778
 847  1528.903
 848  1670.908
 849  1717.656
 850  1578.311
 851  1374.445
 852  1372.42
 853  1506.574
 854  1426.74
 855  1480.775
 856  1530.299
 857  1469.19
 858  1627.751
 859  1731.547
 860  1749.756
 861  1612.105
 862  1420.102
 863  1361.388
 864  1404.623
 865  1494.474
 866  1650.305
 867  1550.723
 868  1520.353
 869  1406.833
 870  1453.365
 871  1525.756
 872  1728.812
 873  1635.832
 874  1482.397
 875  1205.074
 876  1281.942
 877  1060.282
 878  1287.384
 879  1661.717
 880  1892.709
 881  2055.239
 882  2071.819
 883  2208.316
 884  1985.445
 885  1736.458
 886  1923.953
 887  1687.419
 888  1604.991
 889  1063.765
 890  1469.84
 891  1857.578
 892  2241.932
 893  2008.316
 894  1771.968
 895  1869.97
 896  1988.063
 897  2125.175
 898  2100.882
 899  2125.231
 900  2049.608
 901  2152.935
 902  2151.442
 903  1972.174
 904  1711.293
 905  1505.325
 906  1612.44
 907  1707.154
 908  1563.149
 909  1441.852
 910  1393.607
 911  1656.082
 912  1720.302
 913  1986.018
 914  1897.528
 915  1774.852
 916  1475.461
 917  1461.877
 918  1467.529
 919  1395.528
 920  1676.524
 921  1783.242
 922  2013.955
 923  1926.307
 924  1704.324
 925  1735.946
 926  1600.232
 927  1591.422
 928  1397.676
 929  1508.907
 930  1919.988
 931  2184.64
 932  2130.674
 933  1916.455
 934  1916.217
 935  2117.154
 936  2240.348
 937  2169.197
 938  2040.658
 939  1986.051
 940  1985.865
 941  1863.592
 942  1799.961
 943  1777.247
 944  2046.006
 945  1759.291
 946  1652.235
 947  1661.886
 948  1890.678
 949  2133.654
 950  2280.02
 951  2518.265
 952  2083.937
 953  1474.23
 954  970.3781
 955  1082.712
 956  1352.781
 957  1369.607
 958  1502.532
 959  1584.209
 960  1925.808
 961  2150.681
 962  2135.484
 963  2084.744
 964  1833.829
 965  1661.932
 966  1421.868
 967  1285.621
 968  1470.569
 969  1678.901
 970  1737.245
 971  1779.625
 972  1885.26
 973  1932.017
 974  1924.111
 975  2163.626
 976  2305.209
 977  1944.965
 978  1352.658
 979  1203.017
 980  1220.331
 981  1619.778
 982  1562.511
 983  1814.32
 984  2096.387
 985  2380.987
 986  2342.99
 987  2083.257
 988  1832.574
 989  1650.314
 990  1635.259
 991  1769.418
 992  1586.394
 993  1614.03
 994  1680.195
 995  2001.113
 996  2074.154
 997  2161.296
 998  2187.731
 999  2192.241
1000  2199.983
1001  2009.992
1002  2045.978
1003  1919.056
1004  2040.296
1005  2011.999
1006  1965.583
1007  1953.554
1008  2210.129
1009  2375.003
1010  2427.392
1011  2296.279
1012  2209.04
1013  1916.612
1014  1800.712
1015  1813.345
1016  1992.562
1017  1881.077
1018  1886.424
1019  2014.104
1020  2177.474
1021  1931.292
1022  1949.889
1023  1905.614
