# Input file       =  1184113454.097065_cleaned.dat
# Candidate        =  PSR_0332+5434
# Telescope        =  AR
# Epoch_topo       =  57949.017049734546
# Epoch_bary       =  N/A
# T_sample         =  0.002
# Data Folded      =  7208960
# Data Avg         =  0.306835462755143
# Data StdDev      =  6.51037664049457 
# Profile Bins     =  512
# Profile Avg      =  4320.25345793766 
# Profile StdDev   =  772.51592626654  
# Reduced chi-sqr  =  0.465
# Prob(Noise)      <  1   (~0.0 sigma)
# P_topo (ms)      =  714.478899301595  +/- 8.19e-05
# P'_topo (s/s)    =  -0                +/- 4.4e-11
# P''_topo (s/s^2) =  0                 +/- 1.98e-14
# P_bary (ms)      =  N/A
# P'_bary (s/s)    =  N/A
# P''_bary (s/s^2) =  N/A
# P_orb (s)        =  N/A
# asin(i)/c (s)    =  N/A
# eccentricity     =  N/A
# w (rad)          =  N/A
# T_peri           =  N/A
######################################################
   0  3820.95
   1  3337.829
   2  3652.488
   3  4395.366
   4  4218.697
   5  4174.521
   6  4567.795
   7  4709.57
   8  4405.343
   9  4032.414
  10  3637.495
  11  4004.944
  12  4382.312
  13  3677.321
  14  3942.589
  15  3933.284
  16  4000.424
  17  4106.173
  18  4230.197
  19  4618.445
  20  4852.469
  21  4708.417
  22  3989.069
  23  4144.619
  24  4269.315
  25  4524.69
  26  4286.132
  27  4299
  28  4212.819
  29  4029.02
  30  4226.716
  31  4143.093
  32  4066.518
  33  4268.466
  34  4439.757
  35  4254.305
  36  4752.532
  37  4860.248
  38  4324.8
  39  4320.013
  40  4618.509
  41  4629.421
  42  4730.767
  43  4497.561
  44  4889.335
  45  4645.663
  46  4221.164
  47  4049.837
  48  3715.402
  49  3941.892
  50  4217.788
  51  4268.908
  52  4371.231
  53  5035.654
  54  4854.912
  55  3956.24
  56  3983.627
  57  4033.526
  58  4144.545
  59  4466.732
  60  4736.277
  61  4486.092
  62  4596.416
  63  4170.34
  64  4013.575
  65  4102.173
  66  3747.104
  67  3777.094
  68  3833.342
  69  4772.741
  70  5047.184
  71  4329.079
  72  4073.988
  73  4147.684
  74  3780.894
  75  3720.067
  76  4530.871
  77  4613.629
  78  4497.057
  79  4338.085
  80  3715.093
  81  3771.106
  82  3565.085
  83  3689.585
  84  3881.286
  85  4595.61
  86  4809.244
  87  4817.498
  88  4366.05
  89  4507.612
  90  4646.65
  91  4289.64
  92  3831.07
  93  4154.337
  94  4754.026
  95  4808.03
  96  4604.338
  97  4139.651
  98  4404.136
  99  4599.622
 100  4228.974
 101  4488.438
 102  4778.799
 103  5041.019
 104  4662.013
 105  4147.082
 106  4271.771
 107  4682.846
 108  4211.06
 109  3948.296
 110  4622.854
 111  4886.697
 112  4385.569
 113  4012.533
 114  4144.771
 115  4366.999
 116  4196.146
 117  4193.85
 118  4703.464
 119  4708.209
 120  4403.218
 121  4482.196
 122  4643.856
 123  4503.226
 124  4314.934
 125  4068.597
 126  3825.248
 127  4194.71
 128  4444.048
 129  4618.092
 130  4444.542
 131  3992.58
 132  4270.257
 133  3805.799
 134  4001.962
 135  4847.31
 136  5064.306
 137  4294.738
 138  3993.036
 139  4215.659
 140  4360.729
 141  4483.285
 142  4311.56
 143  4727.699
 144  4581.112
 145  3971.501
 146  3672.058
 147  3704.642
 148  4133.57
 149  3846.938
 150  3831.182
 151  4440.684
 152  4781.073
 153  4871.65
 154  4518.894
 155  4221.618
 156  3586.772
 157  3959.454
 158  4246.517
 159  4477.908
 160  4699.011
 161  4660.155
 162  4305.921
 163  3752.58
 164  3728.379
 165  4239.77
 166  4628.081
 167  4578.073
 168  4791.656
 169  4988.583
 170  4713.039
 171  4268.582
 172  4015.389
 173  4479.594
 174  4400.975
 175  3936.706
 176  4057.199
 177  4650.647
 178  4531.146
 179  3936.605
 180  4183.575
 181  4252.701
 182  4233.74
 183  4235.045
 184  4162.37
 185  4303.188
 186  4231.886
 187  4568.692
 188  4626.169
 189  4277.006
 190  4371.906
 191  4122.55
 192  4197.235
 193  3892.047
 194  4129.491
 195  4131.328
 196  3760.211
 197  4256.04
 198  4152.235
 199  4306.221
 200  4214.041
 201  4414.036
 202  4676.69
 203  4485.491
 204  3858.193
 205  3950.45
 206  4725.078
 207  4321.782
 208  4158.216
 209  4131.707
 210  4387.782
 211  4144.142
 212  3734.556
 213  3924.124
 214  4187.714
 215  3658.78
 216  3642.557
 217  4041.391
 218  4283.58
 219  4555.451
 220  4601.35
 221  3908.118
 222  3776.202
 223  3986.35
 224  4076.463
 225  4091.782
 226  4302.074
 227  4403.622
 228  4498.292
 229  3648.434
 230  3482.058
 231  3461.608
 232  3584.626
 233  4271.284
 234  4743.771
 235  4823.421
 236  4692.522
 237  3968.37
 238  3599.488
 239  3929.75
 240  4548.907
 241  4362.078
 242  4291.042
 243  4359.063
 244  4513.775
 245  4011.688
 246  3616.933
 247  4089.662
 248  4154.863
 249  3909.8
 250  4680.849
 251  4703.06
 252  4295.753
 253  4686.314
 254  4669.175
 255  4284.84
 256  4222.483
 257  4591.291
 258  4403.854
 259  4288.384
 260  4462.647
 261  4638.976
 262  4339.385
 263  4367.562
 264  4735.855
 265  4658.135
 266  4237.357
 267  3913.791
 268  4020.91
 269  4240.12
 270  4474.844
 271  4665.395
 272  4551.909
 273  4455.506
 274  3964.26
 275  4009.141
 276  4256.394
 277  4042.049
 278  3530.132
 279  3844.355
 280  4269.132
 281  4186.322
 282  4141.2
 283  4528.886
 284  4637.182
 285  4360.245
 286  3819.621
 287  3708.481
 288  4126.404
 289  4004.985
 290  4399.935
 291  4486.384
 292  4347.569
 293  4182.304
 294  3875.592
 295  3666.425
 296  3392.386
 297  3812.053
 298  4109.307
 299  4394.168
 300  4607.278
 301  4858.852
 302  4509.886
 303  4086.694
 304  4045.532
 305  4109.328
 306  4350.365
 307  4119.863
 308  4290.451
 309  4612.354
 310  4533.16
 311  4203.562
 312  3946.719
 313  3909.158
 314  3700.055
 315  3586.423
 316  4216.391
 317  5023.116
 318  5275.162
 319  4540.993
 320  4252.684
 321  4264.268
 322  4556.291
 323  5082.188
 324  5792.078
 325  6031.257
 326  6347.95
 327  5984.321
 328  5212.729
 329  5035.081
 330  4554.678
 331  4610.37
 332  4517.702
 333  4426.621
 334  5047.25
 335  4865.229
 336  4107.26
 337  4461.666
 338  5011.243
 339  4424.405
 340  4124.388
 341  4434.401
 342  4609.802
 343  4915.776
 344  4509.11
 345  4146.157
 346  4703.622
 347  3978.892
 348  4047.885
 349  4400.413
 350  4668.902
 351  4244.703
 352  3898.878
 353  4217.925
 354  4421.247
 355  4640.552
 356  4330.175
 357  4333.077
 358  4304.453
 359  3938.942
 360  3975.612
 361  3907.782
 362  4398.492
 363  4205.683
 364  4434.144
 365  4353.373
 366  4261.405
 367  4177.808
 368  4186.826
 369  4303.366
 370  4192.379
 371  4398.579
 372  4508.096
 373  4303.332
 374  4343.905
 375  4371.71
 376  4126.124
 377  3955.529
 378  3321.652
 379  3692.065
 380  3966.771
 381  3772.055
 382  4402.066
 383  4952.615
 384  4350.007
 385  3976.185
 386  4310.807
 387  4424.445
 388  4371.086
 389  4085.83
 390  4340.917
 391  4795.898
 392  4347.431
 393  4385.77
 394  4635.132
 395  4394.889
 396  4146.282
 397  4606.908
 398  4576.737
 399  4765.865
 400  5022.142
 401  4766.361
 402  4340.239
 403  4503.172
 404  4722.804
 405  4692.11
 406  4142.775
 407  4177.465
 408  4920.232
 409  4674.137
 410  4350.077
 411  3966.017
 412  3920.782
 413  4439.368
 414  4330.725
 415  4510.218
 416  4793.284
 417  4693.62
 418  4888.992
 419  5298.16
 420  4822.809
 421  4571.234
 422  4528.057
 423  4476.271
 424  4771.42
 425  4793.331
 426  4094.156
 427  4164.92
 428  4486.771
 429  4629.175
 430  4195.478
 431  4293.84
 432  4430.596
 433  4672.093
 434  4716.718
 435  4732.748
 436  4664.381
 437  4656.834
 438  4618.957
 439  4530.469
 440  4452.22
 441  4549.655
 442  4346.581
 443  3919.594
 444  3909.579
 445  4501.467
 446  4453.458
 447  3862.404
 448  4039.454
 449  4909.08
 450  4739.298
 451  4486.008
 452  4520.662
 453  4633.459
 454  4618.809
 455  4478.421
 456  4600.508
 457  4504.396
 458  4261.742
 459  4214.193
 460  3798.647
 461  4128.835
 462  4047.671
 463  4102.705
 464  4252.492
 465  4560.051
 466  4639.22
 467  4725.167
 468  4340.366
 469  4041.265
 470  4156.928
 471  4477.95
 472  4570.806
 473  4592.981
 474  4528.28
 475  4359.006
 476  3939.524
 477  3561.773
 478  4070.888
 479  4271.16
 480  4138.674
 481  4234.114
 482  4949.657
 483  4680.431
 484  4553.283
 485  4568.681
 486  4496.445
 487  4499.502
 488  4278.908
 489  4375.846
 490  4646.132
 491  4746.533
 492  4443.705
 493  4301.558
 494  4028.537
 495  3801.561
 496  3430.987
 497  3504.035
 498  4177.44
 499  4270.366
 500  4627.388
 501  4239.02
 502  3835.786
 503  4191.929
 504  4257.6
 505  4421.013
 506  4068.082
 507  4005.767
 508  3932.914
 509  3817.553
 510  3706.93
 511  3727.322
