# Input file       =  1184113454.097065_cleaned.dat
# Candidate        =  PSR_0332+5434
# Telescope        =  AR
# Epoch_topo       =  57949.017049734546
# Epoch_bary       =  N/A
# T_sample         =  0.002
# Data Folded      =  7208960
# Data Avg         =  0.306835462755143
# Data StdDev      =  6.51037664049457 
# Profile Bins     =  256
# Profile Avg      =  8640.50691587532 
# Profile StdDev   =  1092.50250007536 
# Reduced chi-sqr  =  0.536
# Prob(Noise)      <  1   (~0.0 sigma)
# P_topo (ms)      =  714.478899301595  +/- 0.000104
# P'_topo (s/s)    =  -0                +/- 5.6e-11
# P''_topo (s/s^2) =  0                 +/- 2.52e-14
# P_bary (ms)      =  N/A
# P'_bary (s/s)    =  N/A
# P''_bary (s/s^2) =  N/A
# P_orb (s)        =  N/A
# asin(i)/c (s)    =  N/A
# eccentricity     =  N/A
# w (rad)          =  N/A
# T_peri           =  N/A
######################################################
   0  7158.778
   1  8047.854
   2  8393.219
   3  9277.365
   4  8437.757
   5  7642.439
   6  8059.632
   7  7875.874
   8  8106.597
   9  8848.643
  10  9560.887
  11  8133.688
  12  8794.005
  13  8585.132
  14  8241.839
  15  8369.81
  16  8334.984
  17  8694.062
  18  9612.78
  19  8644.813
  20  9247.93
  21  9228.327
  22  9534.998
  23  8271
  24  7657.293
  25  8486.696
  26  9406.885
  27  8811.151
  28  8017.154
  29  8611.276
  30  9222.37
  31  8766.756
  32  8115.749
  33  7524.198
  34  8606.083
  35  9376.263
  36  8221.672
  37  7500.96
  38  9144.5
  39  8835.143
  40  7486.199
  41  7254.67
  42  8476.896
  43  9626.742
  44  8873.662
  45  8936.29
  46  7985.408
  47  9562.056
  48  8743.989
  49  9003.759
  50  8717.412
  51  9819.817
  52  8809.094
  53  8954.617
  54  8159.356
  55  9509.552
  56  8398.103
  57  8511.769
  58  8389.996
  59  9411.673
  60  8885.414
  61  9147.082
  62  8383.531
  63  8019.959
  64  9062.14
  65  8437.122
  66  8076.056
  67  8849.272
  68  9359.044
  69  8208.695
  70  8844.014
  71  9039.259
  72  8552.613
  73  7376.7
  74  7980.509
  75  8271.865
  76  9652.724
  77  8740.513
  78  7546.227
  79  8724.425
  80  9359.166
  81  8058.501
  82  7968.149
  83  9206.153
  84  9780.238
  85  8981.621
  86  8494.982
  87  8337.681
  88  8707.847
  89  8467.75
  90  8436.276
  91  8468.785
  92  8465.558
  93  8800.578
  94  8903.175
  95  8494.457
  96  8089.282
  97  8260.819
  98  8016.251
  99  8458.457
 100  8628.076
 101  9162.181
 102  7808.643
 103  9046.86
 104  8289.923
 105  8531.924
 106  7658.68
 107  7846.494
 108  7683.949
 109  8839.03
 110  8509.469
 111  7762.552
 112  8168.245
 113  8705.695
 114  8146.726
 115  6943.666
 116  7855.91
 117  9567.192
 118  8660.893
 119  7529.237
 120  8910.985
 121  8650.106
 122  8525.463
 123  7706.595
 124  8064.662
 125  9383.908
 126  8982.067
 127  8954.016
 128  8813.774
 129  8692.237
 130  9101.623
 131  8706.946
 132  9393.989
 133  8151.148
 134  8261.029
 135  9140.238
 136  9007.415
 137  7973.401
 138  8298.442
 139  7374.487
 140  8455.453
 141  8670.086
 142  8997.427
 143  7528.103
 144  8131.39
 145  8886.319
 146  8529.873
 147  7542.017
 148  7204.438
 149  8503.475
 150  9466.13
 151  8596.579
 152  8154.859
 153  8470.228
 154  8902.806
 155  8736.723
 156  7855.877
 157  7286.478
 158  9239.507
 159  9816.154
 160  8516.951
 161  9638.479
 162  11823.33
 163  12332.27
 164  10247.81
 165  9165.048
 166  8944.322
 167  9912.479
 168  8568.927
 169  9435.647
 170  8558.789
 171  9525.578
 172  8655.267
 173  8682.514
 174  8448.298
 175  8913.605
 176  8116.804
 177  9061.799
 178  8663.251
 179  8243.395
 180  7883.395
 181  8604.175
 182  8787.518
 183  8439.213
 184  8490.191
 185  8590.957
 186  8811.428
 187  8715.615
 188  8081.652
 189  7013.717
 190  7738.826
 191  9354.682
 192  8326.191
 193  8735.252
 194  8456.916
 195  9136.814
 196  8733.2
 197  9030.021
 198  8753.189
 199  9342.603
 200  9788.502
 201  8843.412
 202  9414.914
 203  8320.24
 204  9594.369
 205  8316.094
 206  8360.149
 207  8840.942
 208  9486.903
 209  10187.15
 210  9394.043
 211  9004.327
 212  9564.75
 213  8259.076
 214  9115.945
 215  8489.317
 216  9102.689
 217  9449.466
 218  9321.216
 219  9149.426
 220  9001.875
 221  8266.174
 222  8411.047
 223  8315.862
 224  8948.534
 225  9225.307
 226  9154.121
 227  9097.229
 228  9104.904
 229  8475.936
 230  7927.482
 231  8150.375
 232  8812.543
 233  9364.388
 234  8381.632
 235  8634.879
 236  9163.787
 237  8887.285
 238  7501.297
 239  8342.048
 240  8372.788
 241  9630.089
 242  9121.964
 243  8995.947
 244  8654.754
 245  9392.665
 246  8745.263
 247  7830.098
 248  6935.021
 249  8447.806
 250  8866.408
 251  8027.715
 252  8678.613
 253  8073.848
 254  7750.467
 255  7434.252
