# Input file       =  1185521650.102601_cleaned.dat
# Candidate        =  PSR_0332+5434
# Telescope        =  AR
# Epoch_topo       =  57965.315614613435
# Epoch_bary       =  N/A
# T_sample         =  0.002
# Data Folded      =  7340032
# Data Avg         =  0.0490593613576915
# Data StdDev      =  1.00030562542218 
# Profile Bins     =  512
# Profile Avg      =  703.200356688891 
# Profile StdDev   =  119.769629836557 
# Reduced chi-sqr  =  1.299
# Prob(Noise)      <  5.55e-06   (~4.4 sigma)
# P_topo (ms)      =  714.470126514501  +/- 0.000429
# P'_topo (s/s)    =  -0                +/- 2.27e-10
# P''_topo (s/s^2) =  0                 +/- 1e-13
# P_bary (ms)      =  N/A
# P'_bary (s/s)    =  N/A
# P''_bary (s/s^2) =  N/A
# P_orb (s)        =  N/A
# asin(i)/c (s)    =  N/A
# eccentricity     =  N/A
# w (rad)          =  N/A
# T_peri           =  N/A
######################################################
   0  1185.084
   1  1237.717
   2  1217.303
   3  1233.95
   4  1057.129
   5  748.9735
   6  747.838
   7  782.5528
   8  647.5198
   9  539.9259
  10  626.2181
  11  598.5745
  12  625.2767
  13  647.0502
  14  682.2004
  15  745.8027
  16  732.8067
  17  655.4131
  18  648.9657
  19  694.5522
  20  607.8353
  21  565.2521
  22  696.3677
  23  774.9482
  24  717.765
  25  620.8412
  26  563.8495
  27  648.9286
  28  801.1653
  29  802.0367
  30  710.8077
  31  677.5114
  32  776.6185
  33  751.2229
  34  713.7099
  35  793.5143
  36  798.3598
  37  805.2472
  38  824.3013
  39  753.8088
  40  750.9222
  41  717.8958
  42  656.0377
  43  747.0065
  44  674.5925
  45  659.5579
  46  707.5402
  47  731.275
  48  568.7595
  49  655.3957
  50  770.5899
  51  859.2536
  52  810.9785
  53  696.6276
  54  788.652
  55  911.2317
  56  765.0487
  57  645.8135
  58  660.1001
  59  811.4694
  60  719.4232
  61  657.079
  62  614.0788
  63  666.1782
  64  648.9422
  65  681.8996
  66  818.0247
  67  677.0262
  68  507.3419
  69  581.4633
  70  682.7778
  71  765.2289
  72  801.8661
  73  686.6024
  74  636.6861
  75  613.228
  76  624.8324
  77  778.3747
  78  709.5264
  79  557.3928
  80  592.5698
  81  511.0051
  82  477.0791
  83  664.6781
  84  673.5999
  85  670.8309
  86  618.2054
  87  661.2834
  88  695.9979
  89  670.1194
  90  768.0732
  91  770.858
  92  676.7474
  93  578.3195
  94  662.5677
  95  743.5115
  96  731.0552
  97  670.6669
  98  638.3978
  99  690.6512
 100  702.3236
 101  684.0612
 102  692.5182
 103  680.0519
 104  636.8978
 105  698.0878
 106  782.0887
 107  686.4249
 108  667.6237
 109  703.1838
 110  656.5176
 111  630.2565
 112  577.3869
 113  568.6948
 114  530.6252
 115  712.1667
 116  832.8343
 117  756.1631
 118  706.8008
 119  630.3127
 120  733.8303
 121  696.3212
 122  565.3187
 123  666.4227
 124  652.3149
 125  662.1784
 126  693.4733
 127  758.7521
 128  682.3988
 129  647.2535
 130  637.1931
 131  701.5788
 132  725.0333
 133  701.9534
 134  807.0685
 135  763.7254
 136  648.2953
 137  628.5981
 138  607.6131
 139  648.1506
 140  710.9775
 141  722.6472
 142  674.5779
 143  647.0696
 144  708.9324
 145  693.3604
 146  598.7673
 147  522.6519
 148  610.4395
 149  772.9329
 150  820.4377
 151  765.8292
 152  849.7447
 153  765.4375
 154  768.0072
 155  798.2014
 156  707.1747
 157  685.7915
 158  700.8181
 159  797.3708
 160  773.9938
 161  706.7628
 162  721.0013
 163  689.9474
 164  775.3474
 165  696.5872
 166  734.7883
 167  812.903
 168  803.4121
 169  765.1719
 170  789.6688
 171  771.8978
 172  839.6919
 173  820.5426
 174  725.667
 175  799.1605
 176  841.4469
 177  755.1779
 178  705.9039
 179  726.7295
 180  753.7845
 181  794.9049
 182  816.2121
 183  738.5112
 184  720.1933
 185  752.0898
 186  864.6591
 187  943.4316
 188  895.2184
 189  757.5085
 190  784.7866
 191  908.7219
 192  805.4016
 193  874.4612
 194  924.827
 195  945.9974
 196  906.4352
 197  824.7546
 198  839.0839
 199  820.0804
 200  802.1437
 201  787.3024
 202  849.7023
 203  776.0252
 204  707.5244
 205  672.2063
 206  755.4781
 207  838.2053
 208  801.8353
 209  717.3715
 210  702.5317
 211  743.6047
 212  681.4189
 213  692.541
 214  737.2921
 215  789.3613
 216  707.7426
 217  786.6257
 218  755.4301
 219  772.8243
 220  736.5909
 221  727.455
 222  782.8474
 223  758.3408
 224  767.8194
 225  699.4255
 226  673.9795
 227  715.8262
 228  723.8588
 229  720.8251
 230  770.6453
 231  718.8249
 232  783.2237
 233  802.8738
 234  712.2264
 235  799.6501
 236  729.5495
 237  635.0663
 238  644.2979
 239  700.841
 240  643.8766
 241  652.8565
 242  640.2448
 243  765.2399
 244  734.5703
 245  669.7594
 246  599.5083
 247  598.8566
 248  677.2119
 249  654.008
 250  665.0763
 251  598.1548
 252  602.1641
 253  734.2131
 254  725.3746
 255  701.3308
 256  704.4987
 257  650.6097
 258  674.6771
 259  596.3793
 260  613.0264
 261  606.063
 262  700.0352
 263  780.4349
 264  758.015
 265  762.6193
 266  865.7231
 267  759.1825
 268  687.2814
 269  647.7637
 270  585.2365
 271  679.6412
 272  623.5774
 273  562.8428
 274  617.0063
 275  593.4505
 276  649.0355
 277  694.9763
 278  583.6537
 279  622.8906
 280  643.3137
 281  532.754
 282  570.3115
 283  656.0067
 284  676.1937
 285  727.3557
 286  737.8658
 287  680.2609
 288  710.6215
 289  675.5273
 290  687.8029
 291  714.5731
 292  819.0899
 293  736.4448
 294  638.1881
 295  640.348
 296  739.7277
 297  807.0266
 298  716.5031
 299  666.918
 300  635.3553
 301  580.0345
 302  706.2589
 303  681.0129
 304  600.4141
 305  559.4827
 306  553.7053
 307  549.6112
 308  543.4828
 309  683.5984
 310  749.2769
 311  748.458
 312  699.261
 313  626.2821
 314  520.5774
 315  622.4372
 316  591.9578
 317  494.8123
 318  567.993
 319  659.5054
 320  716.3354
 321  661.4031
 322  661.0304
 323  593.2776
 324  605.4809
 325  558.3622
 326  613.5848
 327  649.0204
 328  596.3231
 329  628.0354
 330  508.2704
 331  527.6199
 332  646.3362
 333  702.2401
 334  650.7857
 335  543.5579
 336  582.2831
 337  662.6901
 338  691.8027
 339  569.4659
 340  569.0245
 341  677.145
 342  631.8032
 343  577.2584
 344  606.1544
 345  670.5992
 346  649.7824
 347  656.1129
 348  716.46
 349  549.9351
 350  621.2319
 351  667.0184
 352  743.2018
 353  687.3498
 354  571.8885
 355  616.5445
 356  664.8472
 357  696.6469
 358  578.0516
 359  469.3191
 360  511.4122
 361  657.2675
 362  598.8383
 363  465.5131
 364  509.8495
 365  582.3959
 366  585.9354
 367  604.3423
 368  535.428
 369  604.387
 370  637.4105
 371  550.4722
 372  535.7984
 373  563.0643
 374  489.2226
 375  563.213
 376  569.4785
 377  604.37
 378  638.3487
 379  736.282
 380  658.4391
 381  651.5939
 382  691.5509
 383  710.1619
 384  697.7769
 385  596.4229
 386  597.0246
 387  730.9097
 388  669.6484
 389  628.6035
 390  607.3738
 391  616.9299
 392  655.2636
 393  743.7466
 394  793.7504
 395  738.496
 396  652.0956
 397  706.2451
 398  771.6149
 399  694.1194
 400  719.4095
 401  620.1943
 402  588.8704
 403  744.4282
 404  860.9007
 405  763.6767
 406  815.9522
 407  777.8419
 408  789.7148
 409  855.5085
 410  721.1661
 411  721.2302
 412  715.3846
 413  644.0813
 414  727.2317
 415  666.3886
 416  686.5786
 417  663.1646
 418  664.7245
 419  663.1286
 420  775.2928
 421  810.9537
 422  706.5049
 423  630.8306
 424  659.0073
 425  703.0891
 426  805.2734
 427  753.488
 428  781.8217
 429  796.6006
 430  831.0976
 431  739.4708
 432  685.5461
 433  661.4534
 434  650.4514
 435  710.8777
 436  683.7231
 437  659.4469
 438  629.1705
 439  633.4252
 440  552.8612
 441  650.5314
 442  666.7117
 443  686.2703
 444  656.3003
 445  648.8093
 446  552.6235
 447  593.3475
 448  751.6832
 449  797.2701
 450  674.168
 451  673.6965
 452  687.2964
 453  704.7505
 454  697.4417
 455  620.9974
 456  629.63
 457  708.2094
 458  809.4732
 459  845.1964
 460  739.9127
 461  805.5485
 462  863.4093
 463  802.9864
 464  784.2342
 465  777.5909
 466  844.3635
 467  927.6641
 468  831.8801
 469  729.1932
 470  717.9748
 471  687.558
 472  662.3865
 473  705.2149
 474  744.1555
 475  779.8099
 476  714.7261
 477  748.2972
 478  702.8071
 479  682.01
 480  812.2617
 481  780.9688
 482  690.3784
 483  622.7335
 484  719.2786
 485  819.8889
 486  753.5724
 487  724.9575
 488  729.3528
 489  783.9459
 490  717.9044
 491  675.8607
 492  775.7789
 493  914.4763
 494  831.9766
 495  848.9048
 496  831.3048
 497  823.9843
 498  757.1525
 499  743.689
 500  719.9757
 501  722.9054
 502  713.1269
 503  730.6393
 504  733.968
 505  801.9315
 506  833.855
 507  815.5797
 508  783.9548
 509  815.5276
 510  784.1123
 511  940.3054
