# Input file       =  1185521650.102601_cleaned.dat
# Candidate        =  PSR_0332+5434
# Telescope        =  AR
# Epoch_topo       =  57965.315614613435
# Epoch_bary       =  N/A
# T_sample         =  0.002
# Data Folded      =  7340032
# Data Avg         =  0.390725126422434
# Data StdDev      =  6.3306815578638  
# Profile Bins     =  512
# Profile Avg      =  5601.12108986406 
# Profile StdDev   =  757.991725257429 
# Reduced chi-sqr  =  0.951
# Prob(Noise)      <  0.779   (~0.0 sigma)
# P_topo (ms)      =  714.47012653268   +/- 0.000915
# P'_topo (s/s)    =  -0                +/- 4.83e-10
# P''_topo (s/s^2) =  0                 +/- 2.13e-13
# P_bary (ms)      =  N/A
# P'_bary (s/s)    =  N/A
# P''_bary (s/s^2) =  N/A
# P_orb (s)        =  N/A
# asin(i)/c (s)    =  N/A
# eccentricity     =  N/A
# w (rad)          =  N/A
# T_peri           =  N/A
######################################################
   0  6212.418
   1  5890.547
   2  6151.027
   3  6449.746
   4  6218.758
   5  6414.869
   6  6568.12
   7  6653.198
   8  6511.102
   9  6202.634
  10  6247.142
  11  6391.947
  12  6473.899
  13  6481.071
  14  6627.905
  15  6282.495
  16  5857.688
  17  5606.775
  18  6026.807
  19  6350.334
  20  6187.137
  21  5808.558
  22  5667.432
  23  5835.112
  24  5700.715
  25  5685.245
  26  5966.869
  27  6058.521
  28  5740.706
  29  6083.621
  30  6053.402
  31  6097.17
  32  6056.499
  33  6144.904
  34  6281.581
  35  6189.903
  36  6163.913
  37  6147.518
  38  5968.948
  39  6053.358
  40  5950.82
  41  5774.874
  42  5998.667
  43  5713.512
  44  6079.049
  45  6260.995
  46  6014.674
  47  6210.858
  48  5813.825
  49  5583.071
  50  5678.627
  51  5784.246
  52  5873.404
  53  5854.353
  54  5562.223
  55  5766.186
  56  5482.808
  57  5253.057
  58  5142.12
  59  5148.945
  60  5286.11
  61  5224.035
  62  5405.017
  63  4993.384
  64  4977.874
  65  5337.619
  66  5344.408
  67  5302.026
  68  5184.51
  69  4967.951
  70  5122.426
  71  4978.005
  72  5158.792
  73  5137.711
  74  5484.427
  75  5651.723
  76  5587.354
  77  5529.737
  78  5680.45
  79  5534.244
  80  5268.081
  81  5140.122
  82  5040.722
  83  5207.958
  84  4887.239
  85  4763.474
  86  4970.662
  87  4881.024
  88  5094.077
  89  5173.699
  90  5058.168
  91  5191.841
  92  5066.462
  93  4539.445
  94  4797.672
  95  5340.66
  96  5417.683
  97  5566.734
  98  5502.85
  99  5239.53
 100  5450.311
 101  5393.525
 102  5479.872
 103  5588.673
 104  5887.504
 105  5489.78
 106  5337.757
 107  5558.63
 108  5741.532
 109  5743.59
 110  5324.715
 111  5202.479
 112  5203.333
 113  5185.151
 114  5731.699
 115  5778.744
 116  5460.317
 117  5070.572
 118  4959.027
 119  4959.084
 120  5005.341
 121  5542.549
 122  5845.017
 123  5629.655
 124  5428.49
 125  5213.909
 126  4855.514
 127  5063.895
 128  4933.566
 129  4767.511
 130  4918.45
 131  5033.648
 132  5172
 133  4823.886
 134  4989.852
 135  4897.478
 136  4922.402
 137  4796.288
 138  4736.924
 139  4725.5
 140  4610.533
 141  4606.771
 142  4322.633
 143  4477.377
 144  4821.829
 145  4868.573
 146  4737.354
 147  4425.91
 148  4536.238
 149  4943.663
 150  5047.989
 151  4630.32
 152  4593.357
 153  5129.937
 154  4939.623
 155  4872.212
 156  4864.16
 157  5023.125
 158  4888.506
 159  4920.238
 160  5233.062
 161  4608.493
 162  4811.145
 163  4930.887
 164  5072.692
 165  4773.628
 166  4726.12
 167  4910.518
 168  5132.032
 169  4911.191
 170  4320.713
 171  4082.538
 172  4348.283
 173  4855.637
 174  4791.49
 175  4459.653
 176  4359.28
 177  4442.461
 178  4537.726
 179  4711.623
 180  4496.016
 181  4754.547
 182  4769.754
 183  4357.082
 184  4471.264
 185  4611.372
 186  4646.177
 187  4896.643
 188  4905.937
 189  4946.597
 190  4852.601
 191  5160.22
 192  5220.175
 193  5428.669
 194  5530.132
 195  5423.73
 196  5247.309
 197  4905.3
 198  5031.821
 199  5680.133
 200  5612.019
 201  5410.662
 202  5137.116
 203  5149.615
 204  5504.898
 205  5876.052
 206  5893.667
 207  5752.819
 208  5418.413
 209  5789.518
 210  6169.132
 211  5878.013
 212  5841.049
 213  5308.019
 214  5401.599
 215  5938.23
 216  6215.465
 217  5924.152
 218  6041.868
 219  5804.566
 220  5884.648
 221  5737.387
 222  5289.231
 223  5114.164
 224  5165.386
 225  4868.63
 226  5196.931
 227  5084.553
 228  5083.115
 229  4996.339
 230  5136.015
 231  5029.35
 232  5559.306
 233  5735.42
 234  5386.498
 235  4962.101
 236  5080.419
 237  5329.946
 238  5899.392
 239  5940.827
 240  5980.257
 241  6031.873
 242  5995.771
 243  5551.88
 244  5279.036
 245  5331.704
 246  5498.236
 247  5756.344
 248  5752.753
 249  5607.633
 250  5333.863
 251  5435.105
 252  5168.673
 253  5387.86
 254  5333.645
 255  5323.571
 256  5141.027
 257  5167.743
 258  4926.227
 259  4953.689
 260  5317.846
 261  5461.571
 262  5357.255
 263  5255.223
 264  5117.357
 265  5291.249
 266  5225.585
 267  4891.25
 268  5083.385
 269  5497.33
 270  5652.829
 271  5867.115
 272  5943.139
 273  6284.182
 274  6459.25
 275  6521.972
 276  6399.153
 277  6346.075
 278  6701.094
 279  6864.622
 280  6813.119
 281  6544.299
 282  6513.895
 283  6223.294
 284  6028.642
 285  6063.006
 286  5977.36
 287  6071.585
 288  5899.577
 289  5909.393
 290  5821.054
 291  5840.469
 292  6082.747
 293  5978.508
 294  5509.818
 295  5240.598
 296  5721.163
 297  5992.429
 298  6068.332
 299  5813.544
 300  5880.675
 301  6015.575
 302  5737.806
 303  5733.917
 304  6110.042
 305  6405.753
 306  6031.296
 307  5990.329
 308  6112.69
 309  6268.377
 310  6063.344
 311  6109.724
 312  5981.476
 313  5768.078
 314  5817.859
 315  6070.55
 316  6095.601
 317  6330.262
 318  6488.821
 319  6127.07
 320  6051.123
 321  5977.39
 322  6120.498
 323  6756.867
 324  7415.538
 325  7548.489
 326  7469.71
 327  7448.486
 328  6788.496
 329  5925.636
 330  5990.455
 331  6094.794
 332  5698.668
 333  5499.083
 334  5658.592
 335  5457.01
 336  5612.754
 337  5753.976
 338  5784.675
 339  5875.184
 340  5755.763
 341  5253.115
 342  5416.967
 343  5505.191
 344  5208.166
 345  5174.243
 346  5730.023
 347  5899.717
 348  5534.682
 349  5242.309
 350  4978.881
 351  5409.117
 352  6057.67
 353  6183.263
 354  5792.392
 355  5725.255
 356  5874.272
 357  5804.074
 358  5701.66
 359  6018.885
 360  6149.035
 361  6117.25
 362  5922.31
 363  5654.501
 364  5702.868
 365  5497.426
 366  5456.499
 367  5632.876
 368  5245.17
 369  5454.324
 370  5742.829
 371  5652.589
 372  5170.681
 373  5496.231
 374  5944.112
 375  6153.078
 376  6037.194
 377  5634.361
 378  5960.392
 379  6305.688
 380  5831.333
 381  5566.945
 382  5509.957
 383  6029.901
 384  5732.944
 385  5404.314
 386  5363.214
 387  5517.28
 388  5482.126
 389  5692.741
 390  6201.099
 391  5400.283
 392  4901.28
 393  5161.914
 394  5778.119
 395  6157.464
 396  6230.447
 397  5721.27
 398  5692.909
 399  5479.349
 400  5344.173
 401  5927.703
 402  5734.043
 403  5327.589
 404  5320.495
 405  5033.575
 406  4778.562
 407  5382.665
 408  5455.799
 409  5438.531
 410  5236.393
 411  5411.368
 412  5497.931
 413  5651.021
 414  6067.544
 415  6057.672
 416  5741.579
 417  5409.981
 418  5670.951
 419  6047.833
 420  6041.051
 421  6015.515
 422  5938.183
 423  5812.478
 424  5589.277
 425  5605.94
 426  5841.374
 427  5834.845
 428  5551.899
 429  5859.671
 430  6068.418
 431  5621.708
 432  5504.471
 433  5564.689
 434  5254.422
 435  5319.45
 436  5393.22
 437  5197.577
 438  4881.96
 439  5739.785
 440  6123.989
 441  5865.406
 442  5766.912
 443  5616.17
 444  6039.427
 445  5764.759
 446  5410.833
 447  5703.147
 448  5589.225
 449  5661.758
 450  5836.164
 451  6060.269
 452  5921.493
 453  5874.128
 454  5849.691
 455  5876.747
 456  5843.742
 457  5866.1
 458  6276.887
 459  6025.232
 460  5529.313
 461  5592.373
 462  5539.803
 463  5593.752
 464  6003.907
 465  5889.192
 466  5453.548
 467  5450.015
 468  5725.213
 469  5586.12
 470  5382.318
 471  5111.621
 472  5461.804
 473  6157.712
 474  6267.337
 475  6128.567
 476  6562.134
 477  6314.241
 478  6289.855
 479  6270.639
 480  6173.523
 481  6090.647
 482  6057.896
 483  6262.104
 484  6082.653
 485  5968.966
 486  6257.833
 487  5964.135
 488  6010.402
 489  5701.836
 490  6088.107
 491  6286.444
 492  6293.467
 493  6318.898
 494  6415.958
 495  6089.624
 496  6180.512
 497  5920.46
 498  5727.215
 499  6168.609
 500  6337.866
 501  5816.357
 502  5804.439
 503  5857.092
 504  5534.186
 505  5705.403
 506  5824.711
 507  5805.905
 508  5851.191
 509  5939.928
 510  6234.307
 511  6325.112
