# Input file       =  1185405938.11192_cleaned.dat
# Candidate        =  PSR_0332+5434
# Telescope        =  AR
# Epoch_topo       =  57963.976355462037
# Epoch_bary       =  N/A
# T_sample         =  0.002
# Data Folded      =  7208960
# Data Avg         =  0.341869926616676
# Data StdDev      =  6.84161246882933 
# Profile Bins     =  256
# Profile Avg      =  9626.368290677   
# Profile StdDev   =  1148.08699088951 
# Reduced chi-sqr  =  0.306
# Prob(Noise)      <  1   (~0.0 sigma)
# P_topo (ms)      =  714.470384543207  +/- 0.000136
# P'_topo (s/s)    =  -0                +/- 7.29e-11
# P''_topo (s/s^2) =  0                 +/- 3.28e-14
# P_bary (ms)      =  N/A
# P'_bary (s/s)    =  N/A
# P''_bary (s/s^2) =  N/A
# P_orb (s)        =  N/A
# asin(i)/c (s)    =  N/A
# eccentricity     =  N/A
# w (rad)          =  N/A
# T_peri           =  N/A
######################################################
   0  10369.48
   1  9829.769
   2  9570.238
   3  9389.265
   4  9031.521
   5  9088.11
   6  9331.594
   7  10186.57
   8  9305.332
   9  9099.837
  10  9260.419
  11  10063.72
  12  9429.011
  13  8716.373
  14  8343.054
  15  10010.51
  16  10335.24
  17  9333.737
  18  9339.216
  19  8837.103
  20  10655.87
  21  9888.715
  22  9465.127
  23  8408.351
  24  9032.462
  25  9709.854
  26  9641.931
  27  10318.66
  28  9704.729
  29  9238.952
  30  9130.324
  31  9511.668
  32  9702.737
  33  9885.388
  34  9979.272
  35  10038.02
  36  10100.16
  37  10606.79
  38  10509.71
  39  9847.52
  40  9284.191
  41  9563.176
  42  9795.562
  43  9692.271
  44  9694.765
  45  9261.434
  46  9681.903
  47  9378.788
  48  9493.918
  49  9787.562
  50  9460.206
  51  8989.639
  52  9757.148
  53  10332.94
  54  10388.18
  55  9045.264
  56  9869.454
  57  10311.65
  58  10550.72
  59  10116.99
  60  9309.58
  61  9551.864
  62  9061.294
  63  9881.532
  64  9332.113
  65  9870.061
  66  8906.59
  67  9106.11
  68  10041.79
  69  9726.257
  70  9149.579
  71  9706.637
  72  10261.66
  73  9711.36
  74  9976.322
  75  10914.7
  76  9474.282
  77  9159.896
  78  9960.665
  79  10421.09
  80  9734.058
  81  10299.97
  82  9796.514
  83  8680.801
  84  9641.207
  85  9173.978
  86  10014.1
  87  9354.431
  88  8798.061
  89  9509.814
  90  10758.66
  91  10390.72
  92  9646.913
  93  9009.21
  94  9700.732
  95  9968.199
  96  9121.359
  97  9770.125
  98  9239.541
  99  9941.855
 100  9297.309
 101  9986.09
 102  10255.34
 103  10029.74
 104  8761.026
 105  9557.524
 106  10244.39
 107  10136.66
 108  10027.1
 109  9683.594
 110  9295.599
 111  8849.327
 112  9668.981
 113  10300.61
 114  9407.205
 115  9788.764
 116  9715.651
 117  9808.353
 118  9595.406
 119  9731.238
 120  8551.121
 121  8886.392
 122  9543.521
 123  9785.49
 124  9917.779
 125  10693.05
 126  9844.165
 127  10366.44
 128  9726.004
 129  9707.719
 130  8886.668
 131  10201.33
 132  10074.85
 133  10517.37
 134  10246.74
 135  9954.302
 136  9576.493
 137  9446.455
 138  9616.11
 139  10069.27
 140  9614.939
 141  8695.716
 142  9776.753
 143  9857.366
 144  9463.491
 145  9029.367
 146  9352.329
 147  8124.29
 148  9214.803
 149  9582.24
 150  9529.751
 151  8759.322
 152  9288.603
 153  10558.26
 154  9883.591
 155  9194.283
 156  9392.232
 157  9238.467
 158  9731.954
 159  9340.836
 160  10548.94
 161  10779.29
 162  11668.57
 163  11431.14
 164  9620.091
 165  9999.057
 166  10080.15
 167  9621.099
 168  9161.408
 169  10343.86
 170  10686.18
 171  10365.01
 172  9362.916
 173  10489.54
 174  9827.905
 175  9726.432
 176  10054.19
 177  9658.019
 178  9036.48
 179  9512.93
 180  9499.184
 181  9898.457
 182  10188.18
 183  9318.627
 184  8905.284
 185  8920.514
 186  9756.522
 187  9345.081
 188  9805.416
 189  8728.467
 190  9158.862
 191  9564.063
 192  8938.067
 193  9313.663
 194  9187.29
 195  9576.336
 196  8720.419
 197  9583.974
 198  10223.42
 199  9640.06
 200  7766.936
 201  9126.883
 202  10176.65
 203  9189.765
 204  9059.784
 205  9187.923
 206  9081.541
 207  9701.989
 208  10021.98
 209  9097.94
 210  9530.811
 211  9753.471
 212  9733.27
 213  9469.103
 214  10889.12
 215  10266.77
 216  9504.574
 217  9672.392
 218  9197.401
 219  9973.684
 220  9986.818
 221  9536.295
 222  8656.429
 223  9500.949
 224  9931.012
 225  9045.146
 226  8652.327
 227  8986.278
 228  9383.375
 229  9517.807
 230  10130.55
 231  9682.034
 232  9453.335
 233  9723.501
 234  9304.515
 235  10043.22
 236  9838.099
 237  8869.702
 238  9384.738
 239  10055.57
 240  10099.01
 241  9809.151
 242  9044.665
 243  8828.809
 244  9436.51
 245  9440.005
 246  9298.229
 247  9264.503
 248  8493.127
 249  9380.658
 250  10402.03
 251  9743.961
 252  10079.98
 253  9241.167
 254  9319.801
 255  9984.395
