# Input file       =  1185405938.11192_cleaned.dat
# Candidate        =  PSR_0332+5434
# Telescope        =  AR
# Epoch_topo       =  57963.976355462037
# Epoch_bary       =  N/A
# T_sample         =  0.002
# Data Folded      =  7208960
# Data Avg         =  0.341869926616676
# Data StdDev      =  6.84161246882933 
# Profile Bins     =  1024
# Profile Avg      =  2406.59207265706 
# Profile StdDev   =  574.043495444755 
# Reduced chi-sqr  =  0.281
# Prob(Noise)      <  1   (~0.0 sigma)
# P_topo (ms)      =  714.470384480613  +/- 0.000127
# P'_topo (s/s)    =  -0                +/- 6.81e-11
# P''_topo (s/s^2) =  0                 +/- 3.06e-14
# P_bary (ms)      =  N/A
# P'_bary (s/s)    =  N/A
# P''_bary (s/s^2) =  N/A
# P_orb (s)        =  N/A
# asin(i)/c (s)    =  N/A
# eccentricity     =  N/A
# w (rad)          =  N/A
# T_peri           =  N/A
######################################################
   0  2734.083
   1  2501.449
   2  2493.415
   3  2573.927
   4  2518.644
   5  2461.381
   6  2379.01
   7  2385.738
   8  2496.929
   9  2349.071
  10  2390.908
  11  2352.247
  12  2436.971
  13  2306.175
  14  2309.586
  15  2311.755
  16  2315.002
  17  2257.558
  18  2211.481
  19  2148.096
  20  2100.012
  21  2202.044
  22  2426.502
  23  2538.109
  24  2324.035
  25  2208.51
  26  2297.798
  27  2497.069
  28  2513.214
  29  2623.105
  30  2530.641
  31  2452.455
  32  2384.79
  33  2366.223
  34  2223.067
  35  2262.315
  36  2351.355
  37  2359.907
  38  2117.617
  39  2319.571
  40  2308.82
  41  2280.609
  42  2289.081
  43  2407.698
  44  2546.332
  45  2471.783
  46  2533.559
  47  2620.709
  48  2485.008
  49  2292.051
  50  2242.517
  51  2195.847
  52  2162.883
  53  2119.48
  54  2223.088
  55  2170.727
  56  1949.599
  57  1945.714
  58  2181.528
  59  2426.176
  60  2588.418
  61  2516.712
  62  2476.049
  63  2445.941
  64  2617.855
  65  2610.921
  66  2595.246
  67  2424.989
  68  2408.64
  69  2354.662
  70  2339.66
  71  2229.585
  72  2253.408
  73  2357.118
  74  2401.614
  75  2328.445
  76  2281.456
  77  2135.579
  78  2175.647
  79  2334.216
  80  2597.84
  81  2796.494
  82  2708.864
  83  2619.136
  84  2447.325
  85  2438.354
  86  2436.396
  87  2526.586
  88  2551.762
  89  2416.632
  90  2143.54
  91  2112.486
  92  1969.825
  93  2041.242
  94  2181.903
  95  2287.993
  96  2221.2
  97  2152.396
  98  2357.535
  99  2384.695
 100  2365.716
 101  2450.235
 102  2447.666
 103  2471.316
 104  2442.163
 105  2390.994
 106  2423.313
 107  2423.716
 108  2621.366
 109  2622.751
 110  2613.037
 111  2366.492
 112  2493.082
 113  2427.978
 114  2495.268
 115  2254.28
 116  2223.548
 117  2282.322
 118  2432.159
 119  2368.753
 120  2240.266
 121  2212.866
 122  2300.693
 123  2401.71
 124  2276.095
 125  2400.898
 126  2400.384
 127  2499.078
 128  2569.631
 129  2438.298
 130  2288.559
 131  2322.578
 132  2500.669
 133  2613.741
 134  2334.771
 135  2492.9
 136  2433.286
 137  2553.596
 138  2471.89
 139  2575.641
 140  2648.156
 141  2589.571
 142  2356.727
 143  2311.302
 144  2367.646
 145  2611.061
 146  2620.138
 147  2649.092
 148  2515.514
 149  2635.824
 150  2724.409
 151  2837.7
 152  2739.447
 153  2655.228
 154  2455.757
 155  2417.935
 156  2529.77
 157  2499.959
 158  2427.215
 159  2433.788
 160  2364.272
 161  2276.231
 162  2231.215
 163  2337.175
 164  2432.567
 165  2357.909
 166  2475.673
 167  2301.251
 168  2293.919
 169  2432.597
 170  2596.001
 171  2633.362
 172  2582.339
 173  2355.744
 174  2361.376
 175  2242.745
 176  2443.456
 177  2516.612
 178  2426.941
 179  2305.35
 180  2273.388
 181  2252.463
 182  2432.935
 183  2353.412
 184  2466.532
 185  2360.974
 186  2408.551
 187  2470.862
 188  2363.984
 189  2395.792
 190  2259.905
 191  2188.639
 192  2149.902
 193  2433.342
 194  2522.006
 195  2599.56
 196  2416.106
 197  2468.138
 198  2362.375
 199  2519.258
 200  2631.802
 201  2416.876
 202  2114.679
 203  2093.147
 204  2172.34
 205  2254.248
 206  2312.579
 207  2413.657
 208  2393.361
 209  2363.936
 210  2553.696
 211  2449.223
 212  2428.478
 213  2502.261
 214  2767.38
 215  2837.823
 216  2710.221
 217  2536.848
 218  2515.484
 219  2352.725
 220  2170.06
 221  2181.618
 222  2326.06
 223  2448.944
 224  2557.412
 225  2530.438
 226  2432.501
 227  2236.937
 228  2411.707
 229  2628.402
 230  2786.251
 231  2767.1
 232  2680.927
 233  2665.626
 234  2548.893
 235  2527.828
 236  2465.036
 237  2617.8
 238  2526.015
 239  2503.362
 240  2233.346
 241  2310.998
 242  2322.067
 243  2356.716
 244  2343.749
 245  2340.774
 246  2481.707
 247  2420.239
 248  2254.888
 249  2150.915
 250  2239.158
 251  2440.746
 252  2636.856
 253  2502.615
 254  2352.354
 255  2274.747
 256  2172.758
 257  2263.268
 258  2405.512
 259  2699.837
 260  2592.908
 261  2489.653
 262  2339.182
 263  2169.866
 264  2092.064
 265  2178.852
 266  2395.719
 267  2275.752
 268  2182.4
 269  2184.045
 270  2427.753
 271  2488.754
 272  2657.792
 273  2502.786
 274  2445.832
 275  2381.264
 276  2576.02
 277  2464.1
 278  2403.566
 279  2166.574
 280  2355.853
 281  2318.836
 282  2292.346
 283  2214.662
 284  2356.769
 285  2422.696
 286  2524.351
 287  2546.257
 288  2589.781
 289  2591.151
 290  2516.832
 291  2520.916
 292  2275.442
 293  2437.912
 294  2432.614
 295  2623.275
 296  2497.763
 297  2427.782
 298  2453.243
 299  2651.29
 300  2692.221
 301  2798.054
 302  2705.286
 303  2665.941
 304  2449.98
 305  2298.678
 306  2304.015
 307  2299.809
 308  2329.175
 309  2291.758
 310  2228.753
 311  2207.819
 312  2275.251
 313  2532.409
 314  2712.382
 315  2714.099
 316  2492.664
 317  2551.737
 318  2676.117
 319  2633.933
 320  2542.463
 321  2345.004
 322  2375.053
 323  2401.341
 324  2636.65
 325  2562.677
 326  2601.189
 327  2592.126
 328  2640.078
 329  2469.818
 330  2305.748
 331  2123.154
 332  2152.206
 333  2207.375
 334  2237.678
 335  2186.82
 336  2299.973
 337  2471.491
 338  2578.962
 339  2245.985
 340  2179.833
 341  2214.923
 342  2445.946
 343  2594.171
 344  2443.821
 345  2594.792
 346  2444.497
 347  2404.586
 348  2395.655
 349  2382.005
 350  2298.609
 351  2111.383
 352  2105.025
 353  2250.757
 354  2203.667
 355  2316.099
 356  2245.367
 357  2326.821
 358  2468.13
 359  2631.965
 360  2631.48
 361  2658.475
 362  2727.627
 363  2772.953
 364  2613.281
 365  2528.825
 366  2549.06
 367  2721.378
 368  2671.807
 369  2398.744
 370  2169.888
 371  2093.515
 372  2135.514
 373  2196.595
 374  2405.264
 375  2431.363
 376  2468.825
 377  2418.592
 378  2438.136
 379  2309.989
 380  2370.638
 381  2495.226
 382  2712.286
 383  2426.804
 384  2259.492
 385  2240.342
 386  2335.11
 387  2244.379
 388  2353.947
 389  2553.594
 390  2551.182
 391  2343.594
 392  2409.066
 393  2299.909
 394  2224.674
 395  2369.889
 396  2592.203
 397  2581.903
 398  2337.16
 399  2371.358
 400  2297.76
 401  2253.472
 402  2356.308
 403  2523.591
 404  2451.386
 405  2449.944
 406  2448.564
 407  2640.977
 408  2538.244
 409  2571.819
 410  2578.146
 411  2536.953
 412  2395.387
 413  2495.512
 414  2595.198
 415  2468.982
 416  2152.975
 417  2097.889
 418  2189.362
 419  2244.29
 420  2317.227
 421  2335.405
 422  2486.847
 423  2534.694
 424  2625.075
 425  2568.466
 426  2512.156
 427  2462.175
 428  2509.769
 429  2651.927
 430  2596.487
 431  2407.867
 432  2528.725
 433  2566.597
 434  2513.845
 435  2386.741
 436  2518.128
 437  2480.313
 438  2351.505
 439  2444.738
 440  2438.454
 441  2322.438
 442  2172.026
 443  2253.355
 444  2244.056
 445  2084.183
 446  2180.412
 447  2417.812
 448  2387.237
 449  2310.934
 450  2397.234
 451  2686.481
 452  2587.629
 453  2511.437
 454  2545.131
 455  2521.98
 456  2334.387
 457  2328.355
 458  2357.614
 459  2299.597
 460  2268.973
 461  2560.813
 462  2556.302
 463  2446.896
 464  2361.063
 465  2448.575
 466  2453.286
 467  2523.024
 468  2481.35
 469  2436.865
 470  2362.807
 471  2518.628
 472  2530.521
 473  2448.463
 474  2216.05
 475  2307.169
 476  2453.812
 477  2569.912
 478  2416.893
 479  2187.284
 480  2118.513
 481  2122.592
 482  2161.953
 483  2177.067
 484  2244.485
 485  2221.454
 486  2245.14
 487  2194.264
 488  2354.91
 489  2315.625
 490  2505.227
 491  2521.389
 492  2550.895
 493  2342.244
 494  2379.469
 495  2466.217
 496  2624.745
 497  2482.737
 498  2453.324
 499  2394.086
 500  2632.288
 501  2847.407
 502  2733.264
 503  2439.976
 504  2349.049
 505  2448.05
 506  2593.351
 507  2659.826
 508  2754.822
 509  2682.783
 510  2407.379
 511  2320.148
 512  2340.987
 513  2505.573
 514  2439.625
 515  2524.14
 516  2486.573
 517  2421.171
 518  2328.051
 519  2357.232
 520  2224.828
 521  2122.856
 522  2174.271
 523  2320.959
 524  2322.458
 525  2590.09
 526  2786.572
 527  2688.222
 528  2420.775
 529  2499.882
 530  2576.996
 531  2453.649
 532  2599.755
 533  2684.308
 534  2779.31
 535  2481.946
 536  2452.304
 537  2507.71
 538  2735.995
 539  2628.685
 540  2583.308
 541  2413.706
 542  2479.184
 543  2367.498
 544  2429.834
 545  2389.867
 546  2373.262
 547  2407.614
 548  2472.018
 549  2407.914
 550  2276.118
 551  2151.781
 552  2312.764
 553  2406.588
 554  2529.403
 555  2616.635
 556  2640.052
 557  2504.438
 558  2392.333
 559  2486.881
 560  2553.225
 561  2374.777
 562  2261.394
 563  2276.906
 564  2057.425
 565  2016.644
 566  2235.373
 567  2582.288
 568  2464.005
 569  2431.263
 570  2370.605
 571  2420.377
 572  2344.439
 573  2549.24
 574  2493.927
 575  2439.042
 576  2284.225
 577  2421.992
 578  2384.928
 579  2304.051
 580  2168.499
 581  2312.631
 582  2288.945
 583  2269.697
 584  2319.365
 585  2468.757
 586  2352.159
 587  2065.77
 588  1909.832
 589  1885.34
 590  2142.375
 591  2372.205
 592  2451.821
 593  2233.905
 594  2246.948
 595  2160.676
 596  2425.665
 597  2414.641
 598  2477.21
 599  2387.553
 600  2403.953
 601  2408.327
 602  2431.655
 603  2217.539
 604  2260.618
 605  2086.842
 606  2248.042
 607  2212.025
 608  2193.387
 609  2261.535
 610  2454.136
 611  2508.195
 612  2563.695
 613  2625.209
 614  2725.243
 615  2725.862
 616  2550.334
 617  2470.773
 618  2340.319
 619  2291.968
 620  2236.714
 621  2391.516
 622  2311.309
 623  2222.189
 624  2218.159
 625  2477.436
 626  2365.742
 627  2373.17
 628  2291.927
 629  2369.751
 630  2213.486
 631  2415.488
 632  2446.852
 633  2522.06
 634  2323.994
 635  2378.92
 636  2269.589
 637  2193.14
 638  2455.616
 639  2608.795
 640  2663.881
 641  2619.55
 642  2584.707
 643  2660.922
 644  2639.976
 645  2648.527
 646  2795.573
 647  2748.209
 648  2783.209
 649  2903.566
 650  3039.313
 651  3068.699
 652  2983.927
 653  2879.479
 654  2739.944
 655  2558.689
 656  2545.889
 657  2363.677
 658  2283.972
 659  2383.261
 660  2428.503
 661  2520.969
 662  2536.277
 663  2642.469
 664  2609.576
 665  2530.3
 666  2443.274
 667  2437.248
 668  2477.804
 669  2546.146
 670  2263.632
 671  2180.252
 672  2238.443
 673  2368.572
 674  2292.862
 675  2398.223
 676  2484.96
 677  2703.221
 678  2614.535
 679  2628.947
 680  2570.942
 681  2675.556
 682  2725.542
 683  2772.354
 684  2728.408
 685  2607.492
 686  2421.741
 687  2362.592
 688  2198.554
 689  2256.921
 690  2413.27
 691  2639.038
 692  2630.579
 693  2685.132
 694  2578.506
 695  2556.781
 696  2482.37
 697  2461.866
 698  2431.269
 699  2374.873
 700  2508.941
 701  2443.337
 702  2418.148
 703  2433.92
 704  2581.636
 705  2542.302
 706  2499.912
 707  2380.488
 708  2563.802
 709  2354.284
 710  2415.041
 711  2291.202
 712  2325.633
 713  2157.259
 714  2255.26
 715  2335.739
 716  2484.339
 717  2313.259
 718  2395.926
 719  2274.825
 720  2328.651
 721  2376.994
 722  2384.634
 723  2478.084
 724  2528.545
 725  2536.43
 726  2459.719
 727  2333.406
 728  2452.669
 729  2560.18
 730  2674.446
 731  2506.815
 732  2291.14
 733  2254.25
 734  2381.366
 735  2371.091
 736  2200.4
 737  2219.358
 738  2203.338
 739  2218.243
 740  2118.37
 741  2201.539
 742  2325.097
 743  2369.74
 744  2509.423
 745  2527.778
 746  2393.355
 747  2254.676
 748  2289.661
 749  2347.126
 750  2393.378
 751  2374.791
 752  2611.164
 753  2503.905
 754  2339.686
 755  2363.799
 756  2248.883
 757  2144.079
 758  2012.634
 759  2260.588
 760  2362.142
 761  2267.285
 762  2285.615
 763  2247.316
 764  2356.129
 765  2451.341
 766  2427.145
 767  2401.69
 768  2404.573
 769  2262.417
 770  2141.757
 771  1980.709
 772  2172.608
 773  2402.537
 774  2507.767
 775  2363.42
 776  2264.701
 777  2307.266
 778  2317.094
 779  2317.544
 780  2382.913
 781  2483.824
 782  2338.613
 783  2282.756
 784  2186.203
 785  2142.452
 786  2168.007
 787  2190.324
 788  2290.848
 789  2470.383
 790  2493.323
 791  2503.82
 792  2499.24
 793  2577.034
 794  2595.189
 795  2523.656
 796  2645.506
 797  2514.278
 798  2218.294
 799  1937.232
 800  1712.142
 801  1880.737
 802  2107.344
 803  2277.374
 804  2247.948
 805  2180.411
 806  2340.105
 807  2497.543
 808  2509.8
 809  2504.852
 810  2631.117
 811  2537.735
 812  2452.648
 813  2114.669
 814  2276.224
 815  2171.836
 816  2370.795
 817  2320.647
 818  2224.089
 819  2103.849
 820  2279.296
 821  2396.473
 822  2338.518
 823  2219.983
 824  2280.814
 825  2275.161
 826  2237.932
 827  2406.106
 828  2390.714
 829  2398.645
 830  2453.581
 831  2558.861
 832  2518.424
 833  2541.257
 834  2409.691
 835  2445.534
 836  2290.062
 837  2293.715
 838  2190.034
 839  2259.749
 840  2288.943
 841  2475.591
 842  2375.679
 843  2468.794
 844  2310.878
 845  2488.294
 846  2524.248
 847  2369.562
 848  2275.1
 849  2369.476
 850  2602.633
 851  2549.479
 852  2276.637
 853  2205.858
 854  2406.61
 855  2677.874
 856  2832.119
 857  2730.855
 858  2699.944
 859  2545.506
 860  2574.188
 861  2637.836
 862  2535.202
 863  2431.076
 864  2433.896
 865  2358.396
 866  2393.487
 867  2406.745
 868  2618.526
 869  2458.27
 870  2265.594
 871  2180.162
 872  2219.935
 873  2260.247
 874  2403.358
 875  2499.034
 876  2510.234
 877  2392.181
 878  2494.664
 879  2614.512
 880  2505.55
 881  2380.785
 882  2468.967
 883  2617.989
 884  2508.988
 885  2394.88
 886  2237.243
 887  2156.912
 888  2088.826
 889  2199.435
 890  2206.749
 891  2211.429
 892  2339.49
 893  2426.515
 894  2386.619
 895  2456.011
 896  2511.537
 897  2593.204
 898  2427.252
 899  2344.804
 900  2253.836
 901  2301.481
 902  2212.946
 903  2197.7
 904  2147.53
 905  2241.388
 906  2102.522
 907  2125.197
 908  2181.288
 909  2238.86
 910  2326.781
 911  2361.087
 912  2416.569
 913  2324.529
 914  2295.395
 915  2337.223
 916  2520.97
 917  2356.195
 918  2332.661
 919  2330.653
 920  2542.664
 921  2481.022
 922  2583.424
 923  2586.11
 924  2474.198
 925  2305.101
 926  2460.608
 927  2380.452
 928  2375.397
 929  2351.475
 930  2384.828
 931  2317.234
 932  2268.384
 933  2548.036
 934  2572.07
 935  2342.433
 936  2232.047
 937  2350.085
 938  2384.124
 939  2388.68
 940  2465.093
 941  2610.126
 942  2552.317
 943  2431.546
 944  2485.751
 945  2526.871
 946  2440.102
 947  2273.072
 948  2171.312
 949  2162.724
 950  2214.653
 951  2385.151
 952  2418.657
 953  2356.509
 954  2265.767
 955  2292.473
 956  2413.825
 957  2543.358
 958  2599.93
 959  2647.075
 960  2641.131
 961  2510.277
 962  2446.931
 963  2435.445
 964  2587
 965  2499.897
 966  2350.311
 967  2276.979
 968  2259.877
 969  2271.26
 970  2321.777
 971  2141.598
 972  2113.873
 973  2127.905
 974  2315.905
 975  2390.802
 976  2455.37
 977  2344.451
 978  2327.039
 979  2260.644
 980  2282.264
 981  2376.873
 982  2394.621
 983  2409.962
 984  2476.348
 985  2378.371
 986  2218.915
 987  2114.789
 988  2378.978
 989  2451.686
 990  2275.245
 991  2163.552
 992  2116.526
 993  2153.793
 994  2088.302
 995  2106.228
 996  2097.1
 997  2301.89
 998  2590.098
 999  2772.026
1000  2554.316
1001  2619.242
1002  2509.04
1003  2606.542
1004  2482.785
1005  2444.594
1006  2330.267
1007  2417.271
1008  2432.896
1009  2681.261
1010  2471.972
1011  2472.799
1012  2387.708
1013  2389.659
1014  2226.646
1015  1989.578
1016  2168.163
1017  2363.681
1018  2503.286
1019  2585.231
1020  2430.647
1021  2393.634
1022  2535.65
1023  2703.035
