# Input file       =  1186454626.109951_cleaned.dat
# Candidate        =  PSR_0332+5434
# Telescope        =  AR
# Epoch_topo       =  57976.113948031838
# Epoch_bary       =  N/A
# T_sample         =  0.002
# Data Folded      =  7340032
# Data Avg         =  0.0243026686927935
# Data StdDev      =  2.45112293139954 
# Profile Bins     =  1024
# Profile Avg      =  174.158594830753 
# Profile StdDev   =  207.521974698586 
# Reduced chi-sqr  =  1.245
# Prob(Noise)      <  1.25e-07   (~5.2 sigma)
# P_topo (ms)      =  714.465869239895  +/- 0.000187
# P'_topo (s/s)    =  -0                +/- 9.89e-11
# P''_topo (s/s^2) =  0                 +/- 4.36e-14
# P_bary (ms)      =  N/A
# P'_bary (s/s)    =  N/A
# P''_bary (s/s^2) =  N/A
# P_orb (s)        =  N/A
# asin(i)/c (s)    =  N/A
# eccentricity     =  N/A
# w (rad)          =  N/A
# T_peri           =  N/A
######################################################
   0  51.33557
   1  25.87319
   2  85.88631
   3  196.0974
   4  200.0584
   5  114.6695
   6  35.6793
   7  96.58199
   8  207.7874
   9  269.8759
  10  297.9642
  11  260.3099
  12  183.335
  13  143.9029
  14  89.58155
  15  105.5613
  16  116.5285
  17  159.3498
  18  150.5698
  19  110.0789
  20  -20.99909
  21  -32.19773
  22  33.26146
  23  160.7955
  24  116.4994
  25  -8.117659
  26  113.7931
  27  152.137
  28  153.5301
  29  55.81155
  30  169.3315
  31  213.6691
  32  259.7542
  33  222.233
  34  256.8476
  35  153.8086
  36  169.5689
  37  111.0258
  38  132.0757
  39  146.1329
  40  215.8838
  41  356.237
  42  373.9412
  43  364.4148
  44  306.3965
  45  337.5885
  46  271.5875
  47  147.054
  48  72.36779
  49  95.61699
  50  123.6826
  51  -30.21889
  52  34.18612
  53  57.5232
  54  117.4816
  55  -17.81848
  56  -37.50134
  57  55.53968
  58  222.3139
  59  398.213
  60  384.3095
  61  328.0114
  62  169.7437
  63  177.7554
  64  183.3453
  65  201.1238
  66  173.0219
  67  217.1735
  68  237.4253
  69  233.8927
  70  254.398
  71  339.9466
  72  391.4835
  73  382.5001
  74  250.8403
  75  184.9322
  76  192.0536
  77  250.0116
  78  345.503
  79  315.0314
  80  197.8258
  81  88.75774
  82  61.07668
  83  62.82276
  84  117.8586
  85  133.5585
  86  125.8075
  87  57.55468
  88  -37.07234
  89  9.201124
  90  139.1013
  91  226.7139
  92  243.4797
  93  186.3628
  94  219.0009
  95  291.2885
  96  283.5508
  97  278.4218
  98  204.416
  99  257.3796
 100  233.9198
 101  129.0743
 102  101.8435
 103  112.177
 104  222.413
 105  250.7861
 106  303.3063
 107  289.6779
 108  250.4042
 109  167.0936
 110  194.6321
 111  229.0032
 112  160.5547
 113  95.4281
 114  -4.614994
 115  59.44251
 116  82.03294
 117  182.9516
 118  227.6279
 119  207.1319
 120  230.0193
 121  242.8751
 122  263.195
 123  151.259
 124  97.03934
 125  93.31317
 126  206.2943
 127  245.9785
 128  308.2673
 129  155.3719
 130  67.47855
 131  92.76714
 132  208.9434
 133  301.2103
 134  278.3275
 135  123.4638
 136  60.63331
 137  -23.84593
 138  96.18505
 139  45.4427
 140  74.57649
 141  111.2035
 142  339.2248
 143  373.8061
 144  386.5905
 145  315.2346
 146  325.0296
 147  332.4354
 148  308.5982
 149  253.1192
 150  329.3811
 151  225.4684
 152  183.9078
 153  154.7368
 154  207.038
 155  194.5866
 156  146.1994
 157  260.2151
 158  325.8437
 159  350.1689
 160  207.1232
 161  41.58556
 162  -76.79926
 163  32.52111
 164  196.5497
 165  268.3252
 166  202.6623
 167  276.7703
 168  193.9656
 169  136.21
 170  -25.65992
 171  44.29587
 172  135.8418
 173  115.1795
 174  94.55026
 175  22.84104
 176  100.0816
 177  -37.48993
 178  22.84711
 179  90.78563
 180  177.1121
 181  153.4207
 182  24.64208
 183  9.334583
 184  25.65046
 185  141.3307
 186  139.9822
 187  53.6095
 188  90.32023
 189  180.5805
 190  296.1397
 191  277.4046
 192  156.9748
 193  12.00005
 194  4.69237
 195  104.8287
 196  223.0534
 197  195.8242
 198  186.8472
 199  201.3261
 200  265.2833
 201  251.7365
 202  96.76678
 203  117.769
 204  172.6998
 205  247.3738
 206  268.8248
 207  325.0776
 208  251.6147
 209  150.3649
 210  94.18857
 211  101.0945
 212  62.19914
 213  47.55779
 214  26.71887
 215  141.2521
 216  164.8523
 217  188.4846
 218  159.94
 219  167.4516
 220  203.019
 221  110.6926
 222  12.42797
 223  -12.53839
 224  149.6127
 225  268.1939
 226  243.7187
 227  186.9578
 228  239.6976
 229  200.1456
 230  50.81588
 231  18.50422
 232  179.8499
 233  351.9294
 234  364.7058
 235  306.9587
 236  258.4584
 237  295.8494
 238  326.087
 239  291.9425
 240  247.9538
 241  306.0136
 242  304.9192
 243  166.846
 244  120.5992
 245  162.5111
 246  258.7025
 247  253.794
 248  290.3228
 249  314.0936
 250  299.152
 251  181.6082
 252  236.5091
 253  285.6136
 254  215.5107
 255  -16.24711
 256  -114.5675
 257  -54.02019
 258  -21.94616
 259  16.817
 260  1.136896
 261  149.8508
 262  227.9318
 263  254.9348
 264  201.0124
 265  221.7992
 266  246.8534
 267  239.204
 268  171.9167
 269  172.1723
 270  74.74271
 271  -7.50301
 272  -49.27563
 273  8.910173
 274  11.41454
 275  28.54646
 276  71.46284
 277  222.5909
 278  148.4002
 279  179.7824
 280  85.40598
 281  180.3033
 282  133.2342
 283  84.03072
 284  -0.9730574
 285  -86.95279
 286  63.10795
 287  154.1234
 288  226.9178
 289  248.9619
 290  333.6181
 291  431.0883
 292  422.9117
 293  405.7886
 294  382.741
 295  288.1376
 296  194.9294
 297  207.0748
 298  256.4984
 299  321.3398
 300  230.7132
 301  55.55309
 302  -0.4904082
 303  10.39878
 304  172.5167
 305  198.6773
 306  198.3508
 307  193.991
 308  221.7484
 309  199.7384
 310  172.2006
 311  110.7025
 312  142.4819
 313  210.0506
 314  278.6425
 315  335.1624
 316  279.9723
 317  132.9166
 318  84.68497
 319  137.454
 320  318.0696
 321  248.4574
 322  256.0838
 323  268.0305
 324  392.0665
 325  339.5201
 326  261.767
 327  254.6489
 328  268.8514
 329  325.1422
 330  298.6648
 331  255.8197
 332  217.6626
 333  121.9789
 334  149.9614
 335  257.111
 336  281.3974
 337  192.8221
 338  99.94577
 339  48.45628
 340  17.82559
 341  86.06837
 342  123.0091
 343  78.05456
 344  84.34946
 345  178.3239
 346  280.7768
 347  263.2329
 348  174.2655
 349  108.264
 350  38.20297
 351  30.31842
 352  -49.65013
 353  -61.20982
 354  16.28637
 355  86.00925
 356  151.4389
 357  182.6667
 358  161.6392
 359  110.5696
 360  95.24485
 361  107.1568
 362  65.15034
 363  5.239748
 364  10.77356
 365  -20.93942
 366  -96.8455
 367  -86.61771
 368  73.17616
 369  118.2699
 370  133.8507
 371  127.0147
 372  163.9325
 373  101.2958
 374  120.6507
 375  106.7519
 376  120.9944
 377  142.9297
 378  123.0532
 379  84.44363
 380  138.1012
 381  231.6069
 382  132.788
 383  79.29292
 384  105.4679
 385  218.9
 386  220.8491
 387  100.0493
 388  83.5119
 389  -42.21148
 390  107.4731
 391  55.82019
 392  56.20642
 393  -35.80512
 394  -46.05283
 395  -54.4609
 396  -0.3248341
 397  160.2536
 398  202.4197
 399  155.9099
 400  137.706
 401  157.0193
 402  177.3375
 403  74.32195
 404  -29.81139
 405  11.68429
 406  111.1198
 407  118.2584
 408  28.64095
 409  -48.05679
 410  43.98236
 411  152.8928
 412  192.3921
 413  74.30471
 414  -42.33269
 415  -12.57385
 416  108.2189
 417  143.6329
 418  177.2444
 419  240.7667
 420  289.6723
 421  237.5982
 422  197.6684
 423  251.1142
 424  270.6894
 425  255.8291
 426  277.8213
 427  373.4586
 428  346.1496
 429  184.854
 430  102.4993
 431  183.9856
 432  261.2992
 433  139.4339
 434  104.894
 435  157.2595
 436  255.4245
 437  158.9521
 438  190.3746
 439  245.0789
 440  258.4483
 441  190.297
 442  184.8523
 443  215.0975
 444  163.7973
 445  40.36341
 446  -9.366579
 447  41.4584
 448  42.67927
 449  -19.30031
 450  -47.78911
 451  -19.77285
 452  46.77313
 453  58.64013
 454  -14.06119
 455  -57.09478
 456  -19.9898
 457  122.4775
 458  110.9677
 459  7.413994
 460  -48.03698
 461  67.70314
 462  168.7997
 463  87.3921
 464  141.3506
 465  156.9753
 466  265.4402
 467  180.7535
 468  178.0585
 469  114.5353
 470  109.3939
 471  70.23112
 472  14.59639
 473  111.789
 474  146.2871
 475  149.7714
 476  40.22888
 477  151.96
 478  79.10795
 479  -14.46483
 480  -112.4178
 481  51.38729
 482  143.2266
 483  211.8253
 484  167.7426
 485  178.9347
 486  142.2229
 487  187.1296
 488  112.1902
 489  75.06507
 490  122.5949
 491  212.2501
 492  335.314
 493  355.9352
 494  356.9233
 495  304.1799
 496  141.3743
 497  88.78986
 498  -18.21624
 499  56.78854
 500  182.1309
 501  182.8651
 502  184.5843
 503  134.7482
 504  117.7083
 505  76.43737
 506  29.57483
 507  -0.7374024
 508  -86.06478
 509  -64.26356
 510  122.1798
 511  165.1256
 512  136.143
 513  -31.44131
 514  -62.42878
 515  -69.44607
 516  -124.9083
 517  -28.74462
 518  11.13794
 519  19.43433
 520  20.91825
 521  22.83408
 522  132.723
 523  91.59846
 524  183.9842
 525  207.2446
 526  202.7916
 527  109.1628
 528  196.9609
 529  247.8403
 530  221.0088
 531  65.34563
 532  14.2135
 533  149.6415
 534  197.0546
 535  249.0559
 536  163.0048
 537  106.819
 538  26.60331
 539  37.56973
 540  197.4468
 541  268.8429
 542  274.8925
 543  182.6188
 544  144.2269
 545  270.097
 546  350.7255
 547  394.3394
 548  241.8285
 549  102.7402
 550  50.92908
 551  152.7273
 552  258.8269
 553  234.1009
 554  85.03181
 555  67.86205
 556  27.43931
 557  49.11922
 558  62.79792
 559  194.4527
 560  224.8195
 561  203.7869
 562  177.0666
 563  118.6106
 564  99.42116
 565  134.2025
 566  291.3698
 567  286.5833
 568  140.8372
 569  14.9009
 570  68.77736
 571  68.90512
 572  -33.5241
 573  -66.0069
 574  11.71243
 575  64.54285
 576  87.98596
 577  168.6649
 578  195.2763
 579  242.2348
 580  309.4732
 581  242.1704
 582  144.7781
 583  106.9889
 584  226.1693
 585  222.6229
 586  152.4824
 587  86.99799
 588  23.73146
 589  6.557698
 590  83.95387
 591  200.1218
 592  364.8917
 593  402.5359
 594  292.2175
 595  19.90441
 596  -120.0196
 597  -99.43008
 598  63.09742
 599  169.8665
 600  220.7006
 601  221.0837
 602  98.58232
 603  92.97363
 604  65.89531
 605  225.1307
 606  242.2742
 607  326.6762
 608  261.5344
 609  172.1546
 610  71.91871
 611  -7.692851
 612  25.37311
 613  -2.312702
 614  114.5798
 615  132.4032
 616  125.1399
 617  90.77052
 618  166.3643
 619  346.9247
 620  327.9134
 621  326.9038
 622  213.2153
 623  179.0898
 624  223.949
 625  241.3971
 626  238.5339
 627  262.9401
 628  191.7197
 629  201.6059
 630  205.1428
 631  214.7869
 632  141.416
 633  92.91231
 634  232.6479
 635  336.8035
 636  442.2484
 637  353.6995
 638  314.4346
 639  274.3091
 640  399.2266
 641  495.8923
 642  548.1133
 643  578.0587
 644  619.9473
 645  731.5946
 646  743.908
 647  805.7141
 648  924.8057
 649  1007.968
 650  1082.07
 651  966.9584
 652  825.0904
 653  618.5691
 654  481.7377
 655  359.1015
 656  226.525
 657  143.1657
 658  100.6961
 659  60.12219
 660  66.17081
 661  67.66975
 662  166.7875
 663  198.7651
 664  133.44
 665  85.12932
 666  149.4071
 667  212.0252
 668  136.6031
 669  119.8908
 670  157.6188
 671  224.6024
 672  96.48424
 673  5.658246
 674  -96.79044
 675  -9.323886
 676  78.7476
 677  138.0589
 678  179.1926
 679  212.1118
 680  337.811
 681  319.0906
 682  273.3759
 683  270.72
 684  206.5497
 685  184.2304
 686  186.9933
 687  307.9991
 688  299.3548
 689  244.2884
 690  168.8538
 691  114.0595
 692  117.2833
 693  103.8869
 694  108.2657
 695  98.52709
 696  130.9502
 697  95.48381
 698  142.5159
 699  263.4272
 700  426.9982
 701  432.7338
 702  334.454
 703  343.7496
 704  325.105
 705  264.01
 706  36.68735
 707  45.23289
 708  143.6071
 709  270.8441
 710  177.424
 711  133.772
 712  139.4474
 713  232.5497
 714  245.0844
 715  259.6964
 716  186.1557
 717  158.8485
 718  110.5012
 719  105.2757
 720  79.78432
 721  68.27999
 722  85.7476
 723  66.77697
 724  31.43149
 725  -42.51395
 726  34.84385
 727  59.52214
 728  95.9166
 729  113.4347
 730  217.4188
 731  234.4566
 732  156.3715
 733  33.89594
 734  -14.92522
 735  78.43216
 736  167.0016
 737  173.8619
 738  222.9001
 739  337.6892
 740  411.8343
 741  479.4971
 742  454.2065
 743  387.8789
 744  326.8587
 745  305.0273
 746  331.6229
 747  343.2906
 748  294.735
 749  186.6831
 750  85.64651
 751  143.6623
 752  186.8415
 753  137.1528
 754  148.9115
 755  270.728
 756  367.7346
 757  391.0218
 758  314.0878
 759  304.025
 760  233.0075
 761  216.8418
 762  193.5962
 763  161.892
 764  177.8919
 765  78.44956
 766  157.8718
 767  117.1286
 768  236.99
 769  178.5691
 770  197.849
 771  188.0199
 772  248.0071
 773  285.7136
 774  233.641
 775  86.03028
 776  49.44004
 777  208.1416
 778  335.9193
 779  432.68
 780  361.3192
 781  331.6453
 782  237.7341
 783  137.6798
 784  75.22251
 785  78.40366
 786  175.2351
 787  267.7543
 788  258.976
 789  118.3691
 790  52.71284
 791  93.45861
 792  184.0313
 793  205.0616
 794  136.4342
 795  185.7855
 796  108.3679
 797  135.9018
 798  158.5922
 799  205.761
 800  178.6384
 801  145.8936
 802  156.3006
 803  176.31
 804  185.3053
 805  156.0274
 806  65.62471
 807  -20.77229
 808  -79.08702
 809  98.57927
 810  194.6947
 811  366.1499
 812  339.4026
 813  307.6241
 814  270.4445
 815  262.5953
 816  166.5585
 817  107.2033
 818  58.72133
 819  184.9983
 820  184.5648
 821  278.9901
 822  315.2471
 823  317.7407
 824  161.9308
 825  29.68473
 826  -28.73955
 827  -16.92993
 828  -8.525855
 829  20.26093
 830  198.5205
 831  250.0666
 832  276.4723
 833  201.6609
 834  225.9592
 835  135.9018
 836  157.3386
 837  178.173
 838  328.4605
 839  225.8409
 840  199.9716
 841  202.3283
 842  236.7164
 843  212.0681
 844  259.0547
 845  251.2075
 846  215.0013
 847  172.1351
 848  180.9149
 849  203.8789
 850  139.0447
 851  68.04108
 852  7.958081
 853  -1.804438
 854  70.16922
 855  118.4601
 856  107.5811
 857  120.5296
 858  100.5006
 859  167.5898
 860  239.2675
 861  279.2879
 862  203.6478
 863  132.5488
 864  56.10469
 865  100.9623
 866  164.9552
 867  183.0401
 868  178.631
 869  235.886
 870  230.1398
 871  249.9636
 872  162.0449
 873  294.5695
 874  276.2465
 875  237.9216
 876  149.559
 877  76.70721
 878  60.96353
 879  154.8793
 880  222.0131
 881  287.0104
 882  154.9334
 883  184.513
 884  243.0593
 885  297.9854
 886  216.9446
 887  85.64245
 888  99.31695
 889  214.997
 890  281.104
 891  233.338
 892  180.3246
 893  151.1936
 894  184.6239
 895  98.16575
 896  126.2508
 897  106.5968
 898  230.3391
 899  258.0986
 900  193.0627
 901  124.0412
 902  135.6127
 903  265.0301
 904  279.0841
 905  166.2334
 906  260.4643
 907  185.2073
 908  217.642
 909  106.2717
 910  164.4786
 911  61.92844
 912  33.88699
 913  -33.69724
 914  61.20243
 915  121.6324
 916  348.8145
 917  379.8977
 918  335.904
 919  132.6394
 920  93.84913
 921  72.91532
 922  98.09599
 923  69.8809
 924  38.48637
 925  20.52801
 926  93.84784
 927  182.7558
 928  220.3933
 929  213.2434
 930  241.2068
 931  221.2736
 932  258.0731
 933  306.299
 934  368.212
 935  311.5252
 936  226.8908
 937  161.3562
 938  230.8781
 939  292.2802
 940  212.0308
 941  131.0366
 942  51.66393
 943  89.75629
 944  28.5785
 945  -0.4155888
 946  114.4464
 947  169.5633
 948  152.7025
 949  194.1128
 950  177.5471
 951  102.8315
 952  166.8783
 953  265.5738
 954  347.8276
 955  331.5263
 956  317.7333
 957  346.0731
 958  223.2337
 959  196.4028
 960  155.0468
 961  176.9991
 962  185.5536
 963  175.1057
 964  186.4764
 965  129.9922
 966  171.0761
 967  222.3865
 968  192.0365
 969  52.25889
 970  128.0705
 971  281.961
 972  269.2121
 973  175.0038
 974  179.8091
 975  357.3943
 976  290.9841
 977  148.2152
 978  73.57489
 979  148.4185
 980  173.8861
 981  269.0743
 982  299.5533
 983  336.661
 984  156.3343
 985  181.1102
 986  183.2955
 987  194.6118
 988  190.3571
 989  322.8977
 990  345.9853
 991  351.6778
 992  290.2849
 993  213.5433
 994  155.4806
 995  116.0346
 996  125.6892
 997  132.4552
 998  174.7675
 999  320.8628
1000  373.671
1001  447.9041
1002  357.378
1003  194.0287
1004  91.77459
1005  157.4932
1006  227.2301
1007  246.7071
1008  244.2542
1009  249.952
1010  232.9369
1011  167.0258
1012  191.6968
1013  196.361
1014  210.4226
1015  137.1488
1016  187.6847
1017  218.2743
1018  247.7488
1019  157.2645
1020  120.1343
1021  156.6772
1022  212.2939
1023  188.7362
