# Input file       =  1187489097.112756_cleaned.dat
# Candidate        =  PSR_0332+5434
# Telescope        =  AR
# Epoch_topo       =  57988.086992045784
# Epoch_bary       =  N/A
# T_sample         =  0.002
# Data Folded      =  7340032
# Data Avg         =  0.059176694191203
# Data StdDev      =  2.88740940291519 
# Profile Bins     =  512
# Profile Avg      =  847.892013286115 
# Profile StdDev   =  345.718295073861 
# Reduced chi-sqr  =  1.365
# Prob(Noise)      <  6.94e-08   (~5.3 sigma)
# P_topo (ms)      =  714.463582538436  +/- 0.000149
# P'_topo (s/s)    =  -0                +/- 7.85e-11
# P''_topo (s/s^2) =  0                 +/- 3.46e-14
# P_bary (ms)      =  N/A
# P'_bary (s/s)    =  N/A
# P''_bary (s/s^2) =  N/A
# P_orb (s)        =  N/A
# asin(i)/c (s)    =  N/A
# eccentricity     =  N/A
# w (rad)          =  N/A
# T_peri           =  N/A
######################################################
   0  968.0843
   1  1014.563
   2  943.7419
   3  832.3239
   4  637.7603
   5  842.1848
   6  911.5613
   7  1043.352
   8  688.9547
   9  786.6497
  10  820.3649
  11  873.4447
  12  986.8728
  13  701.7487
  14  728.6401
  15  599.8812
  16  1058.943
  17  1124.763
  18  937.0717
  19  722.5096
  20  1179.438
  21  773.9967
  22  445.4363
  23  571.0447
  24  846.9706
  25  639.754
  26  569.9142
  27  410.0378
  28  677.1265
  29  691.296
  30  582.1544
  31  497.607
  32  175.5057
  33  458.4868
  34  562.6393
  35  666.1321
  36  524.5128
  37  446.9354
  38  735.7932
  39  555.0399
  40  746.6692
  41  1048.339
  42  1047.51
  43  1064.074
  44  564.101
  45  738.4708
  46  561.694
  47  431.7034
  48  688.6454
  49  584.4196
  50  303.15
  51  558.7974
  52  555.2767
  53  301.3682
  54  370.6963
  55  464.3412
  56  534.5058
  57  582.4301
  58  749.4591
  59  451.1227
  60  268.6599
  61  329.5716
  62  225.3198
  63  463.352
  64  646.2408
  65  815.5031
  66  1010.191
  67  921.1313
  68  409.3463
  69  925.336
  70  883.5131
  71  724.7743
  72  578.9183
  73  1031.994
  74  1133.679
  75  773.6224
  76  638.233
  77  906.1027
  78  1284.927
  79  1185.715
  80  868.8793
  81  1049.435
  82  1023.926
  83  1265.351
  84  566.5798
  85  516.5009
  86  869.3077
  87  431.3087
  88  819.3744
  89  701.9988
  90  775.596
  91  732.9401
  92  1074.615
  93  1074.45
  94  696.2764
  95  773.4871
  96  1010.935
  97  1018.026
  98  1246.497
  99  1343.782
 100  1196.549
 101  1136.612
 102  871.7473
 103  759.8983
 104  976.5971
 105  985.5247
 106  1136.737
 107  1178.631
 108  1302.534
 109  918.1798
 110  983.8081
 111  1225.57
 112  1234.553
 113  1237.36
 114  980.1946
 115  650.306
 116  550.1546
 117  718.4724
 118  703.0898
 119  765.5425
 120  583.1939
 121  702.5256
 122  1007.714
 123  669.5206
 124  986.8906
 125  1088.451
 126  1103.44
 127  1054.897
 128  794.3357
 129  958.5919
 130  910.6265
 131  933.6794
 132  964.6671
 133  935.4887
 134  1186.414
 135  1084.208
 136  1043.094
 137  1024.758
 138  1127.68
 139  1170.508
 140  983.1015
 141  927.2369
 142  640.964
 143  342.3574
 144  467.6507
 145  469.6595
 146  791.2224
 147  812.6579
 148  859.9736
 149  982.1483
 150  1097.633
 151  958.5194
 152  724.7863
 153  569.323
 154  753.1376
 155  961.2953
 156  995.903
 157  1113.589
 158  1116.224
 159  1097.695
 160  1181.798
 161  743.319
 162  992.3546
 163  922.5887
 164  857.9553
 165  740.5753
 166  773.6403
 167  977.5523
 168  841.9738
 169  1144.936
 170  943.4922
 171  902.7307
 172  1179.451
 173  793.2234
 174  683.4291
 175  722.5933
 176  976.7772
 177  844.654
 178  905.556
 179  1183.811
 180  809.3019
 181  759.2296
 182  936.8976
 183  948.3288
 184  1240.867
 185  1249.259
 186  1330.279
 187  1087.182
 188  1090.434
 189  1162.768
 190  1023.532
 191  784.857
 192  774.0436
 193  1015.121
 194  903.0159
 195  682.7384
 196  933.8872
 197  1090.359
 198  1396.287
 199  1129.28
 200  916.9061
 201  1145.982
 202  825.049
 203  616.9189
 204  727.8957
 205  1148.366
 206  1060.052
 207  1075.425
 208  1000.522
 209  855.6698
 210  722.4391
 211  938.4666
 212  1124.139
 213  1317.105
 214  1190.638
 215  847.9741
 216  824.2582
 217  794.7497
 218  494.4262
 219  894.5379
 220  1001.527
 221  670.0622
 222  746.4205
 223  528.3859
 224  444.5489
 225  372.8392
 226  683.5407
 227  1047.869
 228  884.7049
 229  900.8261
 230  831.7913
 231  797.5941
 232  683.048
 233  666.1844
 234  585.4001
 235  579.0805
 236  700.4373
 237  709.6888
 238  827.2004
 239  1055.869
 240  928.9905
 241  911.2768
 242  1080.459
 243  944.2421
 244  896.492
 245  959.8436
 246  929.0811
 247  860.3901
 248  750.7514
 249  979.6079
 250  1014.883
 251  950.4432
 252  639.886
 253  476.2222
 254  454.4679
 255  1077.89
 256  751.7002
 257  618.3804
 258  662.9631
 259  826.0868
 260  916.2272
 261  452.9045
 262  620.9366
 263  772.3333
 264  1108.527
 265  792.6174
 266  513.224
 267  204.5792
 268  357.5226
 269  649.5396
 270  737.1697
 271  874.7635
 272  825.8993
 273  745.3986
 274  507.4645
 275  664.7078
 276  857.0396
 277  604.3762
 278  578.022
 279  512.3964
 280  691.7562
 281  560.2733
 282  770.526
 283  902.0464
 284  1086.254
 285  1044.007
 286  1209.52
 287  1077.763
 288  1115.38
 289  920.8861
 290  538.4146
 291  757.5094
 292  1051.739
 293  1031.979
 294  601.3858
 295  641.9376
 296  694.613
 297  398.1489
 298  303.3313
 299  614.8233
 300  734.4993
 301  811.1056
 302  804.5004
 303  1049.925
 304  986.9272
 305  894.6526
 306  1019.293
 307  901.4197
 308  796.7482
 309  709.9818
 310  308.3921
 311  313.0759
 312  726.1459
 313  1099.456
 314  916.6108
 315  734.6793
 316  664.705
 317  842.5065
 318  889.4246
 319  1020.006
 320  1317.599
 321  1999.826
 322  2190.87
 323  2177.29
 324  2635.818
 325  2581.588
 326  2279.406
 327  1656.385
 328  1561.428
 329  923.5176
 330  936.8091
 331  1075.017
 332  1006.104
 333  1152.741
 334  1036.957
 335  771.1569
 336  1212.464
 337  1268.302
 338  976.7221
 339  1046.888
 340  806.1595
 341  995.681
 342  1134.351
 343  1035.145
 344  1028.091
 345  842.449
 346  780.1008
 347  610.9951
 348  322.2249
 349  313.3156
 350  658.115
 351  840.1712
 352  825.934
 353  434.9134
 354  626.9626
 355  968.7339
 356  1089.523
 357  772.8108
 358  608.6385
 359  648.6737
 360  227.3561
 361  842.8894
 362  996.0643
 363  888.7551
 364  841.1124
 365  632.9304
 366  272.1618
 367  315.0328
 368  522.715
 369  937.934
 370  879.7167
 371  1061.2
 372  847.326
 373  541.3021
 374  667.6271
 375  671.4218
 376  445.5431
 377  472.8246
 378  682.7557
 379  682.8378
 380  552.2786
 381  730.4471
 382  508.5975
 383  488.4579
 384  604.8607
 385  779.8712
 386  790.803
 387  603.1649
 388  1000.691
 389  951.881
 390  757.0615
 391  674.4672
 392  824.3933
 393  1002.166
 394  732.0378
 395  1133.885
 396  912.0356
 397  753.9488
 398  774.0226
 399  1398.353
 400  1561.661
 401  1181.691
 402  967.0317
 403  1002.935
 404  1140.682
 405  948.3516
 406  460.2323
 407  903.1241
 408  984.5486
 409  987.5533
 410  674.5876
 411  595.3967
 412  417.6692
 413  518.4713
 414  903.4016
 415  1282.625
 416  1165.406
 417  807.476
 418  821.5297
 419  873.5854
 420  834.5521
 421  709.668
 422  1235.608
 423  1094.729
 424  920.3282
 425  755.2261
 426  764.1986
 427  911.9888
 428  885.811
 429  789.3027
 430  776.0819
 431  875.0604
 432  862.775
 433  898.078
 434  905.5406
 435  680.2766
 436  827.7774
 437  1019.677
 438  761.4435
 439  570.187
 440  626.6417
 441  805.882
 442  795.3531
 443  856.935
 444  1387.545
 445  1142.382
 446  1119.984
 447  1283.763
 448  675.9705
 449  1048.218
 450  1010.843
 451  1044.008
 452  1039.239
 453  1042.537
 454  1005.425
 455  1022.763
 456  827.5154
 457  1050.042
 458  1160.833
 459  770.6769
 460  931.3212
 461  1202.326
 462  1048.848
 463  966.1263
 464  584.4672
 465  953.5565
 466  1138.986
 467  576.2589
 468  329.2102
 469  309.3706
 470  503.1429
 471  632.8206
 472  727.4907
 473  871.9634
 474  463.4309
 475  501.6518
 476  751.0149
 477  778.8531
 478  792.4384
 479  692.8661
 480  811.9001
 481  633.0819
 482  572.2383
 483  878.8647
 484  854.031
 485  1005.65
 486  572.565
 487  502.7758
 488  564.9463
 489  713.9067
 490  912.2797
 491  860.0924
 492  535.8268
 493  135.619
 494  867.0456
 495  1215.196
 496  788.3208
 497  847.1682
 498  1207.137
 499  1023.857
 500  640.4776
 501  818.746
 502  992.0579
 503  858.7047
 504  782.0894
 505  829.455
 506  759.6523
 507  751.4489
 508  978.0513
 509  1148.872
 510  827.6212
 511  681.3571
