# Input file       =  1188852543.12519_cleaned.dat
# Candidate        =  PSR_0332+5434
# Telescope        =  AR
# Epoch_topo       =  58003.867617189702
# Epoch_bary       =  N/A
# T_sample         =  0.002
# Data Folded      =  7143424
# Data Avg         =  0.176110825769458
# Data StdDev      =  3.92631679147495 
# Profile Bins     =  1024
# Profile Avg      =  1228.48973476331 
# Profile StdDev   =  327.935606032646 
# Reduced chi-sqr  =  0.566
# Prob(Noise)      <  1   (~0.0 sigma)
# P_topo (ms)      =  714.464246567699  +/- 1.81e-05
# P'_topo (s/s)    =  -0                +/- 9.83e-12
# P''_topo (s/s^2) =  0                 +/- 4.46e-15
# P_bary (ms)      =  N/A
# P'_bary (s/s)    =  N/A
# P''_bary (s/s^2) =  N/A
# P_orb (s)        =  N/A
# asin(i)/c (s)    =  N/A
# eccentricity     =  N/A
# w (rad)          =  N/A
# T_peri           =  N/A
######################################################
   0  1018.61
   1  1127.186
   2  1168.865
   3  1198.872
   4  1357.946
   5  1431.412
   6  1360.08
   7  1354.8
   8  1389.565
   9  1308.744
  10  1181.1
  11  1147.072
  12  1092.112
  13  1099.102
  14  1111.452
  15  1125.538
  16  1199.403
  17  1215.875
  18  1349.739
  19  1152.366
  20  1165.668
  21  1272.53
  22  1209.77
  23  1137.024
  24  1138.086
  25  1267.316
  26  1209.873
  27  1128.95
  28  1228.428
  29  1166.884
  30  1144.982
  31  1268.304
  32  1270.308
  33  1117.345
  34  1123.393
  35  1293.008
  36  1243.677
  37  1080.372
  38  1132.464
  39  1109.008
  40  1100.334
  41  1169.888
  42  1240.607
  43  1133.56
  44  1020.219
  45  1278.753
  46  1293.477
  47  1178.932
  48  1253.369
  49  1390.329
  50  1426.112
  51  1297.679
  52  1273.549
  53  1108.508
  54  1143.312
  55  1354.549
  56  1503.415
  57  1180.637
  58  1021.741
  59  1095.642
  60  1224.574
  61  1238.541
  62  1285.239
  63  1521.259
  64  1398.599
  65  1289.371
  66  1174.441
  67  1225.445
  68  1356.363
  69  1423.763
  70  1377.56
  71  1236.58
  72  1267.919
  73  1250.224
  74  1121.122
  75  1164.742
  76  1255.948
  77  1187.761
  78  1108.988
  79  1144.107
  80  1245.204
  81  1164.874
  82  1177.257
  83  1192.512
  84  1195.784
  85  1213.717
  86  1212.297
  87  1105.279
  88  1055.748
  89  1155.006
  90  1278.568
  91  1342.95
  92  1307.955
  93  1336.813
  94  1138.798
  95  1070.252
  96  1178.987
  97  1254.813
  98  1154.847
  99  1214.584
 100  1316.249
 101  1324.453
 102  1292.571
 103  1460.868
 104  1453.56
 105  1272.676
 106  1274.751
 107  1226.738
 108  1032.91
 109  982.9024
 110  1218.761
 111  1307.63
 112  1043.403
 113  1098.304
 114  1214.012
 115  1238.912
 116  1092.182
 117  1254.139
 118  1298.701
 119  1193.51
 120  1213.214
 121  1279.052
 122  1234.715
 123  1180.655
 124  1281.217
 125  1204.02
 126  1052.479
 127  1075.379
 128  1330.741
 129  1241.19
 130  1203.251
 131  1212.635
 132  1287.749
 133  1171.382
 134  1020.958
 135  1039.571
 136  1152.822
 137  1225.165
 138  1356.309
 139  1277.662
 140  1261.887
 141  1271.734
 142  1092.577
 143  996.9595
 144  1004.087
 145  1055.184
 146  1075.051
 147  1210.788
 148  1296.146
 149  1290.845
 150  1354.674
 151  1491.859
 152  1436.185
 153  1477.143
 154  1546.973
 155  1521.087
 156  1286.848
 157  1282.027
 158  1355.921
 159  1283.727
 160  1139.637
 161  1335.134
 162  1277.759
 163  1049.447
 164  983.1312
 165  1216.993
 166  1156.094
 167  1110.47
 168  1159.853
 169  1225.597
 170  1027.383
 171  1160.384
 172  1312.313
 173  1325.76
 174  1226.834
 175  1331.897
 176  1213.945
 177  947.5375
 178  969.0332
 179  1182.839
 180  1195.782
 181  1158.438
 182  1127.677
 183  1138.052
 184  1015.762
 185  1017.37
 186  1199.939
 187  1193.681
 188  1130.8
 189  1256.717
 190  1218.162
 191  1114.239
 192  1129.95
 193  1223.691
 194  1218.666
 195  1135.716
 196  1193.79
 197  1234.614
 198  1194.886
 199  1229.586
 200  1187.733
 201  1098.617
 202  1025.269
 203  1096.226
 204  1068.492
 205  1092.188
 206  1184.34
 207  1274.658
 208  1224.658
 209  1346.815
 210  1223.542
 211  1202.842
 212  1175.892
 213  1345.509
 214  1216.889
 215  1136.205
 216  1188.686
 217  1174.697
 218  1135.852
 219  1262.269
 220  1372.092
 221  1291.745
 222  1280.826
 223  1315.327
 224  1275.403
 225  1107.491
 226  1029.571
 227  1046.656
 228  1046.338
 229  1218.826
 230  1346.631
 231  1253.907
 232  1149.464
 233  1091.313
 234  1216.551
 235  1048.041
 236  1066.068
 237  1209.358
 238  1318.835
 239  1264.903
 240  1371.503
 241  1232.647
 242  1138.121
 243  1107.897
 244  1380.087
 245  1338.827
 246  1336.013
 247  1231.523
 248  1238.636
 249  1055.816
 250  1108.033
 251  1165.795
 252  1206.552
 253  1223.838
 254  1334.945
 255  1414.807
 256  1327.693
 257  1409.318
 258  1430.793
 259  1357.043
 260  1345.182
 261  1411.437
 262  1335.074
 263  1247.015
 264  1356.757
 265  1398.782
 266  1326.042
 267  1371.566
 268  1364.62
 269  1260.055
 270  1167.569
 271  1208.174
 272  1173.587
 273  1054.428
 274  1066.24
 275  1127.69
 276  1112.102
 277  1352.251
 278  1454.042
 279  1494.697
 280  1311.167
 281  1357.682
 282  1168.774
 283  954.4269
 284  1034.022
 285  1250.304
 286  1084.656
 287  926.6088
 288  1187.775
 289  1304.699
 290  1203.162
 291  1187.965
 292  1407.422
 293  1267.461
 294  1260.192
 295  1182.62
 296  997.7131
 297  779.9495
 298  847.5186
 299  1033.18
 300  1030.097
 301  950.9619
 302  1108.352
 303  1199.147
 304  1210.26
 305  1248.829
 306  1321.351
 307  1291.204
 308  1290.532
 309  1354.598
 310  1262.424
 311  1110.146
 312  1180.733
 313  1191.921
 314  1162.05
 315  1197.282
 316  1266.31
 317  1250.348
 318  1303.093
 319  1314.199
 320  1276.615
 321  1198.771
 322  1236.329
 323  1257.033
 324  1159.922
 325  1223.975
 326  1377.715
 327  1362.071
 328  1247.842
 329  1276.017
 330  1365.102
 331  1162.158
 332  1222.576
 333  1303.88
 334  1329.346
 335  1230.492
 336  1385.376
 337  1346.711
 338  1241.613
 339  1268.132
 340  1393.682
 341  1259.432
 342  1211.235
 343  1292.738
 344  1270.112
 345  1209.571
 346  1241.226
 347  1319.814
 348  1127.099
 349  1117.23
 350  1300.96
 351  1306.239
 352  1089.28
 353  1015.212
 354  1058.413
 355  1036.035
 356  984.7909
 357  1155.125
 358  1183.478
 359  1234.935
 360  1351.536
 361  1322.724
 362  1284.525
 363  1306.426
 364  1311.345
 365  1260.847
 366  1094.394
 367  1167.934
 368  1188.762
 369  1237.848
 370  1299.959
 371  1205.855
 372  1120.941
 373  1218.098
 374  1281.826
 375  1261.484
 376  1064.337
 377  1163.578
 378  1115.376
 379  947.4058
 380  963.1791
 381  1063.059
 382  995.2498
 383  966.9483
 384  1092.471
 385  1211.24
 386  1211.361
 387  1331.899
 388  1342.81
 389  1260.014
 390  1242.508
 391  1325.005
 392  1263.741
 393  1138.024
 394  1103.209
 395  1180.506
 396  1203.514
 397  1314.206
 398  1399.039
 399  1290.243
 400  1252.348
 401  1254.574
 402  1299.514
 403  1276.109
 404  1437.874
 405  1686.202
 406  1523.34
 407  1261.924
 408  1252.531
 409  1230.279
 410  1234.793
 411  1255.021
 412  1171.816
 413  1144.469
 414  1160.14
 415  1315.216
 416  1230.512
 417  1068.917
 418  1037.728
 419  1113.542
 420  1153.083
 421  1178.794
 422  1146.959
 423  1263.349
 424  1163.027
 425  1315.626
 426  1159.902
 427  1105.7
 428  1114.991
 429  1239.404
 430  1234.922
 431  1332.346
 432  1458.759
 433  1374.023
 434  1094.217
 435  1115.174
 436  1250.398
 437  1369.695
 438  1409.011
 439  1358.734
 440  1231.14
 441  1140.074
 442  1248.883
 443  1313.648
 444  1308.707
 445  1233.884
 446  1329.397
 447  1348.42
 448  1396.401
 449  1271.098
 450  1144.767
 451  1193.071
 452  1328.774
 453  1471.344
 454  1284.705
 455  1251.009
 456  1332.79
 457  1149.476
 458  1137.958
 459  1136.098
 460  1290.326
 461  1210.201
 462  1265.47
 463  1444.861
 464  1397.639
 465  1342.941
 466  1376.346
 467  1301.139
 468  1081.859
 469  1028.71
 470  1262.26
 471  1254.075
 472  1177.089
 473  1329.531
 474  1432.149
 475  1327.894
 476  1353.028
 477  1470.4
 478  1422.806
 479  1379.746
 480  1402.867
 481  1293.57
 482  1153.179
 483  1255.954
 484  1409.653
 485  1234.335
 486  1104.364
 487  1010.251
 488  1169.468
 489  1105.694
 490  1179.523
 491  1254.172
 492  1227.748
 493  1366.716
 494  1287.522
 495  1175.503
 496  1077.773
 497  1209.34
 498  1342.991
 499  1213.715
 500  1172.219
 501  1233.416
 502  1297.681
 503  1375.294
 504  1463.437
 505  1219.887
 506  1237.311
 507  1237.008
 508  1292.446
 509  1155.796
 510  1283.473
 511  1419.747
 512  1406.859
 513  1360.21
 514  1427.51
 515  1244.447
 516  1128.946
 517  1069.355
 518  1242.34
 519  1255.687
 520  1142.684
 521  1212.485
 522  1032.655
 523  1042.716
 524  1189.964
 525  1292.856
 526  1165.021
 527  1108.856
 528  1207.578
 529  1165.165
 530  1021.192
 531  1165.906
 532  1167.539
 533  1144.369
 534  1124.84
 535  1299.253
 536  1236.36
 537  1176.621
 538  1276.986
 539  1391.08
 540  1149.971
 541  1034.059
 542  1063.545
 543  1085.04
 544  1113.354
 545  1156.575
 546  1251.117
 547  1223.882
 548  1255.774
 549  1318.463
 550  1167.033
 551  1215.531
 552  1406.645
 553  1533.182
 554  1539.762
 555  1419.843
 556  1286.638
 557  1132.444
 558  1301.19
 559  1422.51
 560  1332.411
 561  1266.693
 562  1274.228
 563  1122.107
 564  974.3489
 565  982.2459
 566  1154.768
 567  1162.382
 568  1172.481
 569  1194.101
 570  1061.202
 571  1025.828
 572  1259.438
 573  1400.385
 574  1330.891
 575  1213.159
 576  1271.415
 577  1228.571
 578  1173.338
 579  1228.739
 580  1062.164
 581  1018.753
 582  1087.403
 583  1199.538
 584  1105.802
 585  1016.163
 586  1199.584
 587  1204.038
 588  1028.787
 589  1185.517
 590  1298.9
 591  1312.317
 592  1204.998
 593  1238.583
 594  1131.133
 595  943.0908
 596  1135.313
 597  1420.734
 598  1322.489
 599  1197.722
 600  1234.25
 601  1237.228
 602  1150.507
 603  1218.836
 604  1390.203
 605  1276.026
 606  1208.236
 607  1216.104
 608  1213.37
 609  1166.843
 610  1117.368
 611  1182.185
 612  1122.105
 613  1065.153
 614  1109.018
 615  1107.86
 616  1084.018
 617  1140.652
 618  1261.139
 619  1306.148
 620  1336.428
 621  1302.961
 622  1273.408
 623  1251.75
 624  1333.752
 625  1167.072
 626  1279.343
 627  1378.932
 628  1384.158
 629  1334.748
 630  1326.005
 631  1293.13
 632  1160.764
 633  1210.427
 634  1318.05
 635  1135.771
 636  1011.952
 637  1320.045
 638  1506.914
 639  1566.151
 640  1620.512
 641  1819.45
 642  1870.481
 643  1794.99
 644  2101.6
 645  2153.111
 646  1859.775
 647  1878.067
 648  1902.39
 649  1705.476
 650  1216.794
 651  1274.697
 652  1368.262
 653  1165.571
 654  1088.284
 655  1211.418
 656  1342.296
 657  1440.68
 658  1574.664
 659  1572.775
 660  1247.695
 661  1161.523
 662  1258.843
 663  1230.393
 664  1303.311
 665  1480.455
 666  1526.367
 667  1249.174
 668  1200.361
 669  1287.684
 670  1339.813
 671  1223.157
 672  1231.159
 673  1095.605
 674  1058.306
 675  1060.603
 676  1116.309
 677  1227.439
 678  1242.475
 679  1331.298
 680  1187.494
 681  1157.225
 682  1081.525
 683  1034.734
 684  1000.443
 685  1114.979
 686  1107.483
 687  1071.843
 688  1087.906
 689  1265.555
 690  1160.548
 691  1138.883
 692  1280.349
 693  1327.545
 694  1089.28
 695  1194.932
 696  1289.448
 697  1266.687
 698  1075.844
 699  1319.797
 700  1285.949
 701  1146.146
 702  1022.496
 703  982.8618
 704  965.6953
 705  899.162
 706  1179.692
 707  1305.179
 708  1208.876
 709  1195.136
 710  1224.218
 711  1199.893
 712  1248.793
 713  1289.339
 714  1311.24
 715  1205.449
 716  1253.474
 717  1364.208
 718  1255.91
 719  1157.367
 720  1162.21
 721  937.3766
 722  969.3164
 723  1160
 724  1328.476
 725  1230.721
 726  1183.064
 727  1243.331
 728  1164.4
 729  1126.241
 730  1235.273
 731  1194.348
 732  1141.668
 733  1115.631
 734  1166.629
 735  1111.868
 736  1074.288
 737  1135.286
 738  1059.672
 739  1039.379
 740  1183.562
 741  1322.315
 742  1295.822
 743  1280.142
 744  1248.337
 745  1123.402
 746  1047.497
 747  1098.443
 748  1005.492
 749  1021.659
 750  1015.485
 751  1177.931
 752  1128.429
 753  1197.475
 754  1145.698
 755  1212.664
 756  1057.645
 757  1186.191
 758  1183.396
 759  1090.371
 760  1080.295
 761  1160.829
 762  1162.454
 763  991.3645
 764  972.7565
 765  1078.722
 766  1103.085
 767  1270.021
 768  1337.887
 769  1191.708
 770  1161.183
 771  1311.917
 772  1366.082
 773  1231.569
 774  1185.472
 775  1217.682
 776  1084.342
 777  1095.002
 778  1166.78
 779  1183.147
 780  1200.822
 781  1350.617
 782  1489.418
 783  1239.691
 784  1041.128
 785  1075.699
 786  1242.611
 787  1146.827
 788  1252.115
 789  1367.632
 790  1498.327
 791  1542.359
 792  1603.682
 793  1485.121
 794  1262.763
 795  1258.88
 796  1198.28
 797  1280.45
 798  1298.251
 799  1270.782
 800  1131.658
 801  1180.531
 802  1240.059
 803  1306.33
 804  1189.345
 805  1368.844
 806  1294.43
 807  1289.505
 808  1200.886
 809  1240.01
 810  1099.19
 811  1322.199
 812  1432.2
 813  1499.32
 814  1303.577
 815  1372.903
 816  1361.492
 817  1273.745
 818  1311.862
 819  1366.707
 820  1221.032
 821  1145.662
 822  1290.789
 823  1417.71
 824  1270.256
 825  1384.481
 826  1512.192
 827  1431.024
 828  1165.592
 829  1191.453
 830  1205.752
 831  950.1947
 832  903.3848
 833  1073.889
 834  1219.72
 835  1243.298
 836  1407.592
 837  1354.856
 838  1164.49
 839  1135.307
 840  1340.716
 841  1323.054
 842  1170.863
 843  1113.666
 844  1075.362
 845  1017.571
 846  1019.804
 847  1249.647
 848  1298.689
 849  1287.343
 850  1269.625
 851  1318.787
 852  1156.26
 853  1272.35
 854  1171.135
 855  1186.656
 856  1215.793
 857  1303.755
 858  1317.627
 859  1230.744
 860  1229.672
 861  1287.264
 862  1324.844
 863  1451.526
 864  1406.28
 865  1339.505
 866  1310.635
 867  1341.313
 868  1184.187
 869  1079.459
 870  1123.995
 871  1223.841
 872  1187.498
 873  1331.383
 874  1384.475
 875  1247.77
 876  1190.324
 877  1225.081
 878  1306.402
 879  1181.065
 880  1250.389
 881  1212.477
 882  1130.179
 883  1099.682
 884  1324.393
 885  1202.331
 886  1187.633
 887  1188.3
 888  1366.848
 889  1166.255
 890  1278.778
 891  1373.002
 892  1286.083
 893  1093.661
 894  1230.339
 895  1331.754
 896  1237.209
 897  1079.835
 898  1237.242
 899  1208.255
 900  1154.948
 901  1312.883
 902  1318.055
 903  1246.386
 904  1137.334
 905  1191.057
 906  1088.859
 907  1085.324
 908  1253.677
 909  1316.236
 910  1212.064
 911  1126.998
 912  1260.381
 913  1174.713
 914  1125.712
 915  1150.485
 916  1185.282
 917  1198.223
 918  1196.842
 919  1209.442
 920  1168.861
 921  1339.186
 922  1541.965
 923  1483.027
 924  1330.506
 925  1307.714
 926  1349.484
 927  1191.049
 928  1190.898
 929  1256.889
 930  1281.747
 931  1251.135
 932  1294.722
 933  1180.74
 934  1205.361
 935  1237.26
 936  1320.322
 937  1137.072
 938  1175.882
 939  1284.514
 940  1369.075
 941  1455.073
 942  1491.747
 943  1329.221
 944  1244.973
 945  1289.304
 946  1413.171
 947  1265.985
 948  1195.965
 949  1362.439
 950  1310.715
 951  1113.669
 952  1200.135
 953  1346.279
 954  1256.608
 955  1230.438
 956  1438.439
 957  1459.203
 958  1290.848
 959  1244.677
 960  1405.152
 961  1280.393
 962  1247.03
 963  1279.475
 964  1199.804
 965  1136.273
 966  1156.224
 967  1321.639
 968  1215.48
 969  1201.945
 970  1220.02
 971  1155.829
 972  1030.97
 973  1078.227
 974  1099.834
 975  1063.115
 976  1048.187
 977  1133.194
 978  1108.881
 979  1135.826
 980  1270.3
 981  1264.618
 982  1217.06
 983  1205.394
 984  1201.437
 985  1086.027
 986  1187.055
 987  1217.16
 988  1290.833
 989  1258.698
 990  1305.256
 991  1089.357
 992  979.6799
 993  1121.867
 994  1270.762
 995  1196.888
 996  1198.587
 997  1375.14
 998  1300.191
 999  1220.911
1000  1344.834
1001  1406.221
1002  1148.301
1003  954.3636
1004  1113.768
1005  1146.142
1006  1161.873
1007  1349.095
1008  1389.204
1009  1251.385
1010  1119.899
1011  1302.841
1012  1305.204
1013  1183.815
1014  1302.046
1015  1350.349
1016  1146.747
1017  969.6865
1018  963.2523
1019  1055.661
1020  992.4461
1021  1088.146
1022  1054.227
1023  954.2536
