# Input file       =  1188264049.1201_cleaned.dat
# Candidate        =  PSR_0332+5434
# Telescope        =  AR
# Epoch_topo       =  57997.056343982636
# Epoch_bary       =  N/A
# T_sample         =  0.002
# Data Folded      =  7340032
# Data Avg         =  0.0160291123663358
# Data StdDev      =  2.34452665196565 
# Profile Bins     =  1024
# Profile Avg      =  114.890629023063 
# Profile StdDev   =  198.497102824448 
# Reduced chi-sqr  =  1.329
# Prob(Noise)      <  6.23e-12   (~6.8 sigma)
# P_topo (ms)      =  714.463465084972  +/- 0.00013
# P'_topo (s/s)    =  -0                +/- 6.87e-11
# P''_topo (s/s^2) =  0                 +/- 3.03e-14
# P_bary (ms)      =  N/A
# P'_bary (s/s)    =  N/A
# P''_bary (s/s^2) =  N/A
# P_orb (s)        =  N/A
# asin(i)/c (s)    =  N/A
# eccentricity     =  N/A
# w (rad)          =  N/A
# T_peri           =  N/A
######################################################
   0  -124.642
   1  -78.43684
   2  28.61713
   3  141.5111
   4  136.0739
   5  136.1835
   6  83.81707
   7  38.46917
   8  0.9798968
   9  -89.01188
  10  -75.89582
  11  2.790063
  12  176.5018
  13  149.5702
  14  19.85131
  15  -51.34904
  16  -43.90061
  17  0.624386
  18  -7.791464
  19  79.20866
  20  113.7991
  21  161.5862
  22  150.273
  23  161.1374
  24  31.52418
  25  -23.20493
  26  -152.9818
  27  -178.1051
  28  -179.6103
  29  -60.40682
  30  17.11139
  31  134.3986
  32  253.8984
  33  346.9446
  34  272.9388
  35  128.8819
  36  42.61457
  37  85.7358
  38  164.3976
  39  168.7945
  40  184.4179
  41  99.51396
  42  127.8561
  43  115.717
  44  161.1329
  45  126.9017
  46  97.93486
  47  43.27233
  48  37.01943
  49  -14.25582
  50  -42.33897
  51  -112.2339
  52  -8.282769
  53  33.41004
  54  74.65131
  55  12.90425
  56  -26.00772
  57  15.48193
  58  45.55581
  59  145.326
  60  138.8387
  61  109.5688
  62  61.21868
  63  183.6689
  64  290.0959
  65  314.5527
  66  243.5914
  67  125.7159
  68  167.2671
  69  156.1563
  70  117.9229
  71  36.41906
  72  -1.003685
  73  43.85184
  74  40.82026
  75  185.0884
  76  248.9768
  77  237.2134
  78  165.0366
  79  255.9808
  80  304.1715
  81  373.299
  82  269.9909
  83  171.43
  84  133.7784
  85  201.8969
  86  287.7868
  87  113.1489
  88  47.72181
  89  55.56691
  90  160.1913
  91  62.04747
  92  -4.063653
  93  137.2673
  94  201.1595
  95  250.6737
  96  77.25175
  97  111.9361
  98  85.19797
  99  57.85553
 100  89.13769
 101  153.9672
 102  169.5543
 103  115.3957
 104  -15.90328
 105  -45.78174
 106  10.78671
 107  128.1375
 108  230.0564
 109  144.7627
 110  52.52206
 111  42.98977
 112  99.23045
 113  163.5568
 114  148.6458
 115  105.484
 116  94.00584
 117  96.10275
 118  97.06609
 119  60.67111
 120  -38.20749
 121  -20.44174
 122  2.391381
 123  69.65905
 124  144.2083
 125  120.8815
 126  126.6576
 127  13.11445
 128  57.64631
 129  88.69494
 130  78.86546
 131  32.38435
 132  49.8562
 133  108.2818
 134  217.7318
 135  250.4595
 136  286.2486
 137  199.8043
 138  91.11285
 139  76.76457
 140  73.41705
 141  128.9166
 142  7.6039
 143  88.38263
 144  119.8737
 145  166.1735
 146  129.7937
 147  187.2929
 148  130.8934
 149  88.74511
 150  -35.11822
 151  18.17294
 152  62.35723
 153  150.995
 154  127.612
 155  64.39148
 156  112.578
 157  167.3164
 158  172.8456
 159  43.31896
 160  -60.16922
 161  -40.9996
 162  12.57298
 163  157.2522
 164  194.0997
 165  242.4665
 166  233.359
 167  130.653
 168  12.91907
 169  -52.00212
 170  46.07286
 171  122.3673
 172  10.86973
 173  -64.90461
 174  -159.134
 175  -194.465
 176  -101.6536
 177  -80.03941
 178  -47.70047
 179  -88.93777
 180  52.2209
 181  251.7488
 182  358.2226
 183  360.9298
 184  253.0195
 185  161.9694
 186  80.83399
 187  32.03631
 188  61.93996
 189  26.50715
 190  56.09616
 191  26.7123
 192  36.28479
 193  -34.39665
 194  -3.507048
 195  67.16504
 196  93.33399
 197  -24.07135
 198  -112.078
 199  -72.78294
 200  0.1794954
 201  122.0838
 202  174.9087
 203  156.8549
 204  59.24176
 205  71.10332
 206  87.45818
 207  93.69838
 208  54.90839
 209  124.1783
 210  209.1508
 211  265.6787
 212  178.4601
 213  53.79049
 214  -16.00182
 215  48.90342
 216  80.70596
 217  -34.79408
 218  -103.9629
 219  -110.9071
 220  16.7634
 221  62.76768
 222  78.65739
 223  96.97835
 224  134.4414
 225  132.9943
 226  209.9558
 227  225.9926
 228  254.1527
 229  135.1836
 230  98.91772
 231  71.56963
 232  52.09559
 233  64.60365
 234  150.4558
 235  218.3147
 236  304.0234
 237  225.6988
 238  178.3907
 239  98.7504
 240  12.13712
 241  9.040647
 242  -63.2351
 243  -41.11211
 244  32.89045
 245  42.52414
 246  85.94094
 247  7.403728
 248  73.85452
 249  146.0526
 250  162.3431
 251  151.4815
 252  85.17433
 253  185.1202
 254  240.5804
 255  210.9974
 256  179.2482
 257  155.4551
 258  189.8358
 259  93.22723
 260  106.765
 261  89.94985
 262  117.8152
 263  -106.3302
 264  -204.1779
 265  -128.4181
 266  76.05824
 267  182.3874
 268  124.5486
 269  110.1195
 270  87.44767
 271  115.3396
 272  113.0429
 273  143.7899
 274  70.33568
 275  109.7124
 276  46.80213
 277  11.80199
 278  78.04546
 279  167.3945
 280  269.074
 281  262.6073
 282  241.176
 283  146.1154
 284  124.448
 285  164.75
 286  223.2811
 287  196.0961
 288  241.7865
 289  172.3053
 290  32.80898
 291  -111.3027
 292  -166.4041
 293  -2.191003
 294  64.19767
 295  32.14322
 296  -24.66288
 297  160.8342
 298  221.5642
 299  114.9259
 300  -45.18967
 301  -30.67741
 302  151.3333
 303  232.9913
 304  207.9079
 305  116.4613
 306  45.46868
 307  62.68114
 308  101.832
 309  259.5517
 310  287.7637
 311  197.1886
 312  -2.638695
 313  -16.82282
 314  103.7104
 315  168.962
 316  55.76014
 317  7.066502
 318  44.38958
 319  112.2975
 320  129.8725
 321  130.167
 322  96.0256
 323  77.62095
 324  33.75431
 325  5.390835
 326  -38.20578
 327  43.78317
 328  -76.97444
 329  -84.04729
 330  -154.3753
 331  -35.48602
 332  67.29539
 333  164.5108
 334  156.4922
 335  112.0444
 336  67.32513
 337  60.369
 338  48.37987
 339  85.6779
 340  146.1197
 341  127.1569
 342  87.41734
 343  99.65878
 344  163.8909
 345  239.1886
 346  327.929
 347  286.1385
 348  285.9033
 349  234.8563
 350  214.4677
 351  80.40079
 352  56.87202
 353  115.635
 354  198.1334
 355  194.8134
 356  217.5797
 357  202.1847
 358  171.1722
 359  126.9639
 360  172.6888
 361  155.7106
 362  72.81809
 363  20.53341
 364  -43.7531
 365  -95.63143
 366  -136.1174
 367  4.412461
 368  176.2022
 369  270.3786
 370  215.8858
 371  84.76237
 372  39.41849
 373  102.5657
 374  128.6237
 375  64.60454
 376  44.74815
 377  46.64154
 378  48.57162
 379  89.76029
 380  40.27237
 381  75.49225
 382  145.8674
 383  225.3574
 384  212.5666
 385  126.9759
 386  205.568
 387  263.4184
 388  296.8101
 389  206.1615
 390  96.84337
 391  104.8164
 392  193.8781
 393  290.7675
 394  291.3399
 395  253.5776
 396  184.1591
 397  176.4666
 398  138.4591
 399  65.17436
 400  68.59184
 401  53.04781
 402  40.02201
 403  -70.04026
 404  -28.08672
 405  109.0746
 406  198.8386
 407  242.858
 408  372.2607
 409  291.6593
 410  154.7902
 411  66.7796
 412  190.8196
 413  239.1096
 414  193.0309
 415  190.539
 416  189.096
 417  171.1675
 418  8.193355
 419  -166.3093
 420  -199.6952
 421  -119.1915
 422  71.40839
 423  140.2207
 424  110.3302
 425  36.56883
 426  22.54276
 427  181.4688
 428  206.3705
 429  194.5277
 430  157.0355
 431  153.7258
 432  158.1986
 433  67.99939
 434  56.81254
 435  59.76587
 436  129.8832
 437  181.9593
 438  261.3669
 439  282.0317
 440  174.3666
 441  55.49583
 442  -31.5942
 443  -15.34442
 444  -59.54095
 445  13.90552
 446  53.2198
 447  154.2528
 448  248.9445
 449  159.3697
 450  121.4256
 451  35.74851
 452  172.2108
 453  180.0217
 454  176.7797
 455  21.14074
 456  -136.1163
 457  -152.3855
 458  -129.0418
 459  8.684699
 460  120.1396
 461  173.223
 462  100.3838
 463  16.87137
 464  8.718922
 465  26.21127
 466  18.95939
 467  -2.971267
 468  19.84269
 469  16.63547
 470  6.102763
 471  52.84423
 472  131.306
 473  119.4553
 474  37.17069
 475  0.8629273
 476  13.26439
 477  46.05528
 478  -44.84451
 479  -69.32961
 480  -1.245277
 481  124.0993
 482  234.2677
 483  199.8544
 484  223.5774
 485  176.9072
 486  234.1707
 487  270.3619
 488  334.2187
 489  291.2173
 490  151.6997
 491  240.5815
 492  233.8641
 493  226.4837
 494  102.0665
 495  13.04239
 496  62.16805
 497  119.1604
 498  208.1272
 499  311.9788
 500  252.2302
 501  306.1311
 502  205.5669
 503  179.2274
 504  51.74987
 505  1.66348
 506  -13.86351
 507  -25.16643
 508  -38.7047
 509  49.55591
 510  111.0101
 511  202.0901
 512  163.51
 513  203.7577
 514  129.9473
 515  74.76419
 516  94.51051
 517  148.8713
 518  137.1267
 519  91.07948
 520  165.2122
 521  203.1597
 522  155.2842
 523  13.26526
 524  83.53589
 525  121.7172
 526  201.0584
 527  197.4216
 528  239.8542
 529  185.4085
 530  186.4773
 531  202.0679
 532  218.6444
 533  193.6075
 534  113.7822
 535  74.0134
 536  -34.26946
 537  -62.10496
 538  -38.75246
 539  12.04363
 540  44.73567
 541  75.95373
 542  178.2545
 543  198.3158
 544  147.6303
 545  103.3597
 546  75.16891
 547  47.32882
 548  25.09762
 549  154.5303
 550  106.136
 551  117.3767
 552  138.6345
 553  245.1154
 554  185.3857
 555  97.1818
 556  77.63703
 557  146.8021
 558  174.9533
 559  201.3324
 560  216.0751
 561  178.5295
 562  155.7888
 563  48.20201
 564  84.98606
 565  55.55729
 566  169.7449
 567  167.5872
 568  147.361
 569  129.4285
 570  147.9624
 571  172.4175
 572  65.50263
 573  67.92807
 574  166.6786
 575  289.7502
 576  130.8437
 577  -35.96827
 578  -72.18468
 579  157.6089
 580  238.5187
 581  257.8956
 582  67.12015
 583  -42.92919
 584  -42.50056
 585  81.42567
 586  174.5217
 587  94.76797
 588  66.95905
 589  25.86012
 590  8.389161
 591  -70.07449
 592  -103.9399
 593  -16.53156
 594  62.97408
 595  171.8787
 596  282.7334
 597  381.9931
 598  291.0045
 599  103.2954
 600  16.87214
 601  3.400181
 602  82.72335
 603  237.4312
 604  282.4374
 605  235.8329
 606  216.0651
 607  242.3939
 608  210.7047
 609  81.21387
 610  38.64396
 611  130.0472
 612  150.608
 613  128.4329
 614  75.87521
 615  45.78114
 616  119.085
 617  176.533
 618  191.8999
 619  114.0321
 620  53.61058
 621  78.61939
 622  140.1614
 623  107.8618
 624  161.2505
 625  116.8161
 626  52.14862
 627  -25.56049
 628  21.41375
 629  142.2913
 630  191.8024
 631  197.7259
 632  202.6654
 633  149.5274
 634  4.874522
 635  -30.2309
 636  14.55852
 637  130.784
 638  199.305
 639  316.2423
 640  468.7311
 641  498.4569
 642  528.5952
 643  721.1075
 644  981.2575
 645  1010.131
 646  916.8662
 647  836.3944
 648  875.4756
 649  787.3663
 650  627.1084
 651  459.772
 652  325.9541
 653  197.992
 654  129.6914
 655  123.2854
 656  188.5394
 657  199.4161
 658  240.91
 659  290.7876
 660  144.906
 661  14.08385
 662  -100.6469
 663  35.55008
 664  70.91441
 665  186.3137
 666  182.7291
 667  245.1373
 668  276.3232
 669  250.2576
 670  272.606
 671  181.0351
 672  141.181
 673  77.33369
 674  212.4158
 675  300.272
 676  306.2627
 677  268.0155
 678  278.4557
 679  270.7646
 680  308.9699
 681  245.1288
 682  250.2673
 683  232.0522
 684  329.0753
 685  299.4529
 686  202.0901
 687  150.3587
 688  52.7612
 689  23.5831
 690  37.70249
 691  188.3632
 692  234.1933
 693  181.3241
 694  142.8734
 695  198.1546
 696  172.6789
 697  206.3831
 698  145.4699
 699  94.37109
 700  117.9428
 701  121.896
 702  78.1759
 703  -7.618219
 704  3.071215
 705  87.66714
 706  197.6181
 707  199.3242
 708  176.2027
 709  165.8778
 710  121.5893
 711  -25.92203
 712  -83.17396
 713  -101.2874
 714  -1.861312
 715  14.61679
 716  94.27282
 717  106.6564
 718  -23.64151
 719  -59.36635
 720  -94.22537
 721  24.52158
 722  104.1254
 723  196.5015
 724  223.6706
 725  191.3554
 726  151.0751
 727  179.5235
 728  249.8833
 729  195.2558
 730  148.6122
 731  84.0405
 732  199.5363
 733  96.94127
 734  -54.26336
 735  -104.525
 736  -61.3403
 737  62.70968
 738  89.47033
 739  82.91136
 740  147.063
 741  193.4015
 742  147.5559
 743  58.09827
 744  53.20429
 745  185.8598
 746  209.3363
 747  109.2874
 748  161.169
 749  194.3643
 750  245.7549
 751  120.2292
 752  200.6442
 753  241.2689
 754  288.7023
 755  268.8299
 756  71.67213
 757  1.039433
 758  -61.13368
 759  220.3079
 760  270.3499
 761  275.7346
 762  190.7236
 763  133.8293
 764  120.7321
 765  129.5275
 766  226.3199
 767  318.3585
 768  300.0529
 769  193.5901
 770  134.5606
 771  6.473459
 772  -96.52707
 773  -53.88027
 774  103.5685
 775  183.0549
 776  76.80624
 777  -32.70084
 778  15.5637
 779  87.14503
 780  190.6591
 781  119.7674
 782  128.6382
 783  74.62609
 784  119.5311
 785  86.21693
 786  119.704
 787  196.054
 788  250.0652
 789  189.8162
 790  -26.92158
 791  -8.284718
 792  97.72278
 793  231.7359
 794  213.9306
 795  174.6463
 796  161.6765
 797  90.86873
 798  27.2746
 799  28.35899
 800  62.68383
 801  152.8253
 802  213.3476
 803  271.976
 804  247.9745
 805  284.3787
 806  359.1166
 807  356.5583
 808  297.5581
 809  174.8742
 810  232.9879
 811  203.871
 812  169.9969
 813  88.43365
 814  123.0803
 815  199.7548
 816  124.0641
 817  198.6193
 818  78.53886
 819  92.08778
 820  -24.48802
 821  22.42475
 822  89.01597
 823  95.37284
 824  143.1454
 825  137.1373
 826  95.85897
 827  195.0531
 828  264.2887
 829  259.0468
 830  95.93206
 831  14.83481
 832  23.1978
 833  -29.10959
 834  -10.55409
 835  17.41628
 836  -46.28166
 837  6.764585
 838  115.0281
 839  380.8264
 840  376.8658
 841  253.5045
 842  120.6661
 843  -0.1919965
 844  19.58406
 845  -54.10575
 846  69.52832
 847  -27.26858
 848  -26.62495
 849  -75.15166
 850  41.92505
 851  119.0472
 852  111.8835
 853  189.2302
 854  262.4911
 855  308.9302
 856  179.5836
 857  -18.74015
 858  -149.7414
 859  -169.8975
 860  -131.107
 861  -116.5188
 862  -128.9568
 863  -57.16697
 864  122.6054
 865  221.5213
 866  222.5304
 867  188.3985
 868  235.323
 869  247.2242
 870  109.0665
 871  18.21642
 872  1.327048
 873  5.00392
 874  100.1606
 875  146.7643
 876  141.7156
 877  -6.479434
 878  -10.6402
 879  72.59599
 880  77.14765
 881  39.01704
 882  126.9981
 883  223.3512
 884  232.4019
 885  164.8178
 886  72.03058
 887  -105.8334
 888  -172.9621
 889  -136.2402
 890  -7.926407
 891  57.5412
 892  9.378157
 893  18.23884
 894  7.856558
 895  92.6171
 896  167.8526
 897  56.91078
 898  -47.45303
 899  -36.01244
 900  121.0844
 901  93.16965
 902  3.869134
 903  44.52241
 904  114.0607
 905  142.9495
 906  116.8409
 907  117.0313
 908  114.2056
 909  173.6765
 910  174.116
 911  82.57717
 912  26.32407
 913  21.30187
 914  -18.65455
 915  -73.41769
 916  -28.25505
 917  88.32307
 918  80.15388
 919  45.13671
 920  116.3738
 921  239.3082
 922  275.0565
 923  168.6732
 924  93.06126
 925  88.97263
 926  132.5145
 927  180.9788
 928  247.5197
 929  201.3999
 930  61.2584
 931  -54.65723
 932  46.80816
 933  128.3383
 934  237.3902
 935  207.536
 936  177.9378
 937  155.1768
 938  147.8479
 939  191.7746
 940  192.7098
 941  126.1731
 942  129.7713
 943  105.5827
 944  219.1032
 945  141.9391
 946  72.98676
 947  30.89209
 948  213.1483
 949  288.55
 950  262.8617
 951  116.6271
 952  93.01914
 953  101.328
 954  256.7065
 955  220.8207
 956  167.2953
 957  1.866248
 958  123.9165
 959  200.9652
 960  180.4722
 961  143.7619
 962  163.9051
 963  222.023
 964  163.8467
 965  113.5345
 966  76.47186
 967  69.20766
 968  -40.11684
 969  -33.67044
 970  80.22822
 971  265.5089
 972  257.6998
 973  144.7422
 974  20.13117
 975  70.1909
 976  35.30335
 977  45.97802
 978  24.18172
 979  79.75014
 980  76.95215
 981  102.6459
 982  221.7498
 983  289.6353
 984  261.4355
 985  92.00224
 986  58.44348
 987  41.00096
 988  61.70361
 989  97.87129
 990  144.0884
 991  206.5949
 992  243.8362
 993  193.3247
 994  42.94135
 995  -57.17393
 996  -81.64443
 997  -79.69194
 998  -80.35728
 999  39.34851
1000  112.1944
1001  104.6358
1002  30.53782
1003  53.33936
1004  10.36147
1005  61.96486
1006  91.24815
1007  185.6432
1008  289.1701
1009  290.8639
1010  183.9932
1011  2.562274
1012  -68.32137
1013  -86.03797
1014  -60.95173
1015  -53.43118
1016  -39.46111
1017  -11.92464
1018  14.10417
1019  114.2587
1020  162.6306
1021  199.0816
1022  111.9014
1023  2.380468
