# Input file       =  1188177843.110233_cleaned.dat
# Candidate        =  PSR_0332+5434
# Telescope        =  AR
# Epoch_topo       =  57996.058589238812
# Epoch_bary       =  N/A
# T_sample         =  0.002
# Data Folded      =  7340032
# Data Avg         =  0.0230644701878191
# Data StdDev      =  2.41564402146106 
# Profile Bins     =  1024
# Profile Avg      =  165.365224153029 
# Profile StdDev   =  204.51818677907  
# Reduced chi-sqr  =  2.534
# Prob(Noise)      <  6.38e-137   (~24.9 sigma)
# P_topo (ms)      =  714.463410094251  +/- 0.000144
# P'_topo (s/s)    =  -0                +/- 7.58e-11
# P''_topo (s/s^2) =  0                 +/- 3.35e-14
# P_bary (ms)      =  N/A
# P'_bary (s/s)    =  N/A
# P''_bary (s/s^2) =  N/A
# P_orb (s)        =  N/A
# asin(i)/c (s)    =  N/A
# eccentricity     =  N/A
# w (rad)          =  N/A
# T_peri           =  N/A
######################################################
   0  231.0987
   1  248.408
   2  148.1555
   3  143.7827
   4  97.92374
   5  210.0325
   6  158.1183
   7  222.53
   8  226.527
   9  303.3162
  10  126.6938
  11  -59.99015
  12  -136.0292
  13  -42.02667
  14  12.76217
  15  118.6389
  16  264.5676
  17  267.999
  18  64.74292
  19  -125.0741
  20  -154.4666
  21  -66.7297
  22  41.1728
  23  43.50358
  24  47.77882
  25  26.16398
  26  62.62527
  27  155.3063
  28  196.0534
  29  171.5911
  30  76.77262
  31  32.33757
  32  121.2018
  33  249.9296
  34  305.4714
  35  197.3765
  36  111.1605
  37  74.4464
  38  36.63254
  39  -73.45939
  40  -157.3181
  41  -100.8791
  42  -39.10214
  43  -57.48422
  44  -15.57066
  45  9.343167
  46  148.1052
  47  74.25797
  48  53.01795
  49  116.0486
  50  47.5976
  51  60.17672
  52  19.89901
  53  96.39741
  54  34.37957
  55  21.22686
  56  139.8589
  57  198.6667
  58  117.0457
  59  -121.6139
  60  -233.5474
  61  -235.2652
  62  -106.3009
  63  -41.82445
  64  99.17927
  65  183.8875
  66  222.1631
  67  105.8294
  68  -15.20578
  69  -96.32677
  70  -112.0942
  71  -120.5242
  72  13.75287
  73  147.9262
  74  259.1538
  75  181.9572
  76  102.2046
  77  17.69367
  78  -32.9236
  79  -42.04145
  80  -100.4907
  81  -158.024
  82  -117.322
  83  59.8446
  84  163.9535
  85  219.761
  86  110.9938
  87  132.8336
  88  67.6313
  89  105.2337
  90  59.76848
  91  84.87508
  92  140.0649
  93  185.5469
  94  223.375
  95  154.6105
  96  62.41475
  97  -141.0639
  98  -190.0627
  99  -81.20729
 100  62.39621
 101  118.0373
 102  122.5447
 103  71.55628
 104  100.4761
 105  116.4393
 106  182.3781
 107  78.79492
 108  -8.301082
 109  -91.61828
 110  -86.22965
 111  -91.01105
 112  -67.31353
 113  -31.25214
 114  19.75004
 115  20.53459
 116  39.20021
 117  37.39989
 118  90.90756
 119  34.33671
 120  -25.74521
 121  -0.5062583
 122  -33.25904
 123  20.60414
 124  -112.4892
 125  -53.9981
 126  -48.04638
 127  -20.30209
 128  -141.748
 129  -89.00862
 130  -2.010567
 131  74.50187
 132  -33.46791
 133  -146.6053
 134  -15.02898
 135  13.67759
 136  76.77308
 137  -3.051913
 138  65.6683
 139  120.8907
 140  140.3696
 141  139.5724
 142  128.2539
 143  102.1577
 144  24.23969
 145  -9.115719
 146  0.3232731
 147  -92.63808
 148  -131.6352
 149  -94.95881
 150  33.13145
 151  20.17136
 152  -2.262956
 153  -26.3969
 154  98.23763
 155  61.63882
 156  -3.437147
 157  -89.35392
 158  -102.1048
 159  -45.88869
 160  -60.15542
 161  41.22492
 162  17.63239
 163  11.9115
 164  -13.51499
 165  83.60489
 166  136.5545
 167  155.2564
 168  5.135958
 169  -91.57889
 170  -157.0032
 171  -120.8487
 172  -61.58335
 173  -67.226
 174  -147.8372
 175  -157.1145
 176  20.98523
 177  79.48483
 178  60.19873
 179  66.49324
 180  171.7853
 181  152.7207
 182  24.3897
 183  54.71766
 184  132.9379
 185  99.70932
 186  64.9115
 187  75.93369
 188  169.8318
 189  262.2895
 190  211.0305
 191  189.8473
 192  145.9326
 193  95.07799
 194  76.34615
 195  44.54285
 196  104.7171
 197  85.52117
 198  69.60589
 199  -11.7127
 200  64.16341
 201  96.47449
 202  108.6704
 203  32.17833
 204  129.049
 205  285.3914
 206  332.8295
 207  331.3439
 208  307.2627
 209  281.2159
 210  202.1344
 211  87.60071
 212  118.7699
 213  65.55775
 214  144.8127
 215  155.7421
 216  211.4174
 217  169.9433
 218  37.07607
 219  -60.37313
 220  -70.91089
 221  22.89434
 222  112.473
 223  171.9592
 224  317.2992
 225  363.2668
 226  339.857
 227  306.6335
 228  333.6825
 229  396.1766
 230  211.925
 231  107.157
 232  161.799
 233  248.76
 234  311.0438
 235  218.2807
 236  277.6978
 237  214.4935
 238  196.3673
 239  177.0329
 240  213.0597
 241  296.7993
 242  223.7505
 243  247.7624
 244  192.9176
 245  204.5168
 246  155.9151
 247  65.8636
 248  18.19577
 249  106.1612
 250  254.4373
 251  307.4249
 252  250.7758
 253  293.0041
 254  282.4467
 255  286.9056
 256  270.9208
 257  239.5709
 258  266.9624
 259  233.7151
 260  246.4508
 261  219.3462
 262  316.3558
 263  285.0768
 264  268.5595
 265  95.21609
 266  51.67821
 267  42.35295
 268  70.01739
 269  190.5877
 270  309.6905
 271  356.2134
 272  348.3777
 273  279.5627
 274  160.978
 275  129.7343
 276  270.1457
 277  404.9472
 278  319.4545
 279  169.9472
 280  58.29813
 281  186.9433
 282  203.3703
 283  261.3493
 284  192.1478
 285  346.4424
 286  453.9474
 287  356.6919
 288  231.4988
 289  82.49462
 290  129.5094
 291  203.8232
 292  338.6071
 293  361.2842
 294  245.5223
 295  148.2529
 296  152.0794
 297  136.9667
 298  131.0346
 299  221.9895
 300  257.437
 301  304.5363
 302  235.0078
 303  190.5704
 304  105.123
 305  122.0625
 306  182.6535
 307  168.5671
 308  162.2083
 309  166.4295
 310  173.3953
 311  121.9455
 312  135.7328
 313  156.4801
 314  247.1498
 315  308.7219
 316  329.8081
 317  256.1194
 318  308.869
 319  335.8381
 320  396.5025
 321  277.4087
 322  246.1955
 323  189.1475
 324  272.4951
 325  172.3669
 326  139.5151
 327  74.16446
 328  149.3075
 329  165.0658
 330  236.2807
 331  237.8145
 332  271.5688
 333  165.315
 334  117.1466
 335  87.03118
 336  165.2238
 337  219.7838
 338  181.5815
 339  112.6027
 340  54.05542
 341  84.50702
 342  194.1152
 343  182.4716
 344  145.1178
 345  116.7286
 346  118.299
 347  90.61581
 348  245.6453
 349  405.9769
 350  397.3462
 351  252.7301
 352  174.4901
 353  165.7234
 354  127.618
 355  164.1518
 356  142.4983
 357  185.0385
 358  328.3209
 359  360.9182
 360  188.2762
 361  38.38567
 362  119.2026
 363  274.2942
 364  383.4679
 365  460.0563
 366  430.8191
 367  266.572
 368  42.81684
 369  -86.29717
 370  -62.55606
 371  87.07793
 372  51.22338
 373  98.72698
 374  -34.8264
 375  30.48702
 376  25.86458
 377  100.6289
 378  116.7451
 379  132.5539
 380  151.0065
 381  154.761
 382  64.08171
 383  -46.42029
 384  -77.91416
 385  31.04454
 386  99.86763
 387  142.0469
 388  137.1205
 389  90.09814
 390  54.53658
 391  93.881
 392  211.636
 393  238.646
 394  187.3142
 395  126.2736
 396  55.92096
 397  37.05603
 398  13.40563
 399  54.36751
 400  56.07774
 401  54.52336
 402  152.7382
 403  232.8162
 404  245.1302
 405  190.3231
 406  177.6207
 407  180.8886
 408  112.2283
 409  44.953
 410  -15.11693
 411  -75.78747
 412  -10.60247
 413  32.20542
 414  100.4839
 415  58.95589
 416  52.85585
 417  10.03584
 418  20.54136
 419  38.53326
 420  -37.86315
 421  -46.56232
 422  -14.04129
 423  -20.54252
 424  27.26291
 425  72.59056
 426  117.4244
 427  175.6492
 428  184.1889
 429  164.8817
 430  21.55895
 431  -81.55842
 432  -105.512
 433  -32.40948
 434  46.58038
 435  60.98557
 436  0.9096956
 437  81.40702
 438  123.9209
 439  95.83028
 440  47.71407
 441  98.1565
 442  110.1558
 443  121.1356
 444  34.78018
 445  69.38772
 446  3.785848
 447  -25.57237
 448  -81.42825
 449  -104.8126
 450  -74.88116
 451  -145.2478
 452  -200.9178
 453  -165.5149
 454  -39.61319
 455  59.76202
 456  32.21275
 457  31.75249
 458  -52.65637
 459  -86.29237
 460  -176.1309
 461  -83.76272
 462  36.59829
 463  32.97274
 464  -14.00836
 465  -49.28762
 466  48.83932
 467  29.34915
 468  -6.854234
 469  -14.79495
 470  57.81588
 471  101.1219
 472  52.58691
 473  21.46508
 474  47.37167
 475  43.62329
 476  17.90523
 477  -51.91284
 478  -95.73241
 479  -167.3427
 480  -101.781
 481  -183.545
 482  -194.1829
 483  -131.4608
 484  22.0751
 485  125.8662
 486  91.40356
 487  159.5342
 488  79.63911
 489  86.47037
 490  83.15044
 491  82.73592
 492  47.17579
 493  17.00735
 494  95.87981
 495  157.9189
 496  148.6681
 497  172.3645
 498  106.1455
 499  26.93816
 500  -119.1172
 501  -174.1156
 502  -175.1254
 503  -12.86924
 504  80.94413
 505  39.74227
 506  -154.302
 507  -153.8999
 508  -61.63993
 509  -1.619084
 510  12.05217
 511  19.27763
 512  -52.4048
 513  -263.9357
 514  -282.7005
 515  -231.2104
 516  -42.72388
 517  -62.52258
 518  29.38807
 519  32.50336
 520  37.19082
 521  53.44529
 522  160.6443
 523  220.7611
 524  108.3242
 525  23.75793
 526  -9.55249
 527  102.5991
 528  39.15662
 529  -77.09401
 530  -189.4099
 531  -234.2778
 532  -59.5405
 533  96.50694
 534  153.2063
 535  39.12218
 536  -28.22685
 537  22.75619
 538  100.4318
 539  194.1945
 540  160.0321
 541  173.2752
 542  88.1528
 543  -19.88156
 544  -45.46252
 545  -45.32694
 546  -36.8987
 547  -81.48593
 548  10.24405
 549  96.77597
 550  113.0516
 551  138.3466
 552  172.5252
 553  188.7386
 554  167.9738
 555  186.1469
 556  57.11583
 557  -99.85445
 558  -237.0317
 559  -207.748
 560  -122.626
 561  -94.24673
 562  -132.5979
 563  -182.3982
 564  -155.3336
 565  11.03889
 566  95.77677
 567  24.68712
 568  -24.67296
 569  -43.64561
 570  -102.4211
 571  -188.4724
 572  -266.5152
 573  -171.5152
 574  -192.722
 575  -142.7576
 576  -104.0507
 577  -54.74443
 578  -80.21135
 579  -68.8745
 580  -2.323634
 581  19.23862
 582  38.7307
 583  67.6274
 584  -36.18217
 585  -143.5173
 586  -255.4476
 587  -89.23093
 588  -12.50603
 589  -6.027847
 590  -118.3912
 591  -94.25662
 592  -7.900894
 593  103.4065
 594  125.3434
 595  95.48844
 596  -25.32622
 597  -155.0975
 598  -182.3477
 599  -104.9821
 600  80.52836
 601  282.5844
 602  444.2631
 603  380.1419
 604  134.0517
 605  -25.4339
 606  -37.34938
 607  49.92223
 608  30.69226
 609  153.275
 610  168.9646
 611  180.7665
 612  176.6713
 613  134.8734
 614  148.1621
 615  45.0084
 616  45.98948
 617  158.1816
 618  292.7338
 619  413.3909
 620  378.6158
 621  296.454
 622  212.8681
 623  189.6262
 624  264.5417
 625  224.884
 626  214.8477
 627  247.0724
 628  339.3619
 629  292.8302
 630  226.5737
 631  272.5045
 632  479.411
 633  557.3602
 634  584.287
 635  470.5709
 636  363.9327
 637  195.2194
 638  243.7683
 639  456.2286
 640  647.0862
 641  655.097
 642  639.155
 643  683.5565
 644  742.9282
 645  794.1666
 646  970.6788
 647  1082.922
 648  1036.874
 649  770.045
 650  522.6447
 651  401.0457
 652  362.9242
 653  357.6806
 654  304.1081
 655  257.6535
 656  358.9271
 657  320.6399
 658  277.931
 659  175.0898
 660  192.038
 661  208.6266
 662  237.7888
 663  336.4032
 664  379.4405
 665  354.9377
 666  326.2454
 667  258.0108
 668  239.9288
 669  158.859
 670  309.6765
 671  381.6109
 672  471.7258
 673  481.0407
 674  404.4286
 675  360.3697
 676  292.4474
 677  293.0418
 678  371.4667
 679  475.2008
 680  492.0234
 681  336.2357
 682  279.2413
 683  317.7842
 684  375.9468
 685  302.644
 686  170.8538
 687  197.7611
 688  329.4126
 689  360.316
 690  145.5389
 691  32.11911
 692  80.26746
 693  222.5857
 694  257.4369
 695  111.1094
 696  40.22291
 697  44.7062
 698  156.7009
 699  82.66352
 700  1.776968
 701  -47.93626
 702  45.68047
 703  258.9076
 704  348.6624
 705  440.4312
 706  380.9391
 707  306.1914
 708  217.4723
 709  225.9187
 710  325.4083
 711  288.1169
 712  213.316
 713  255.4088
 714  344.8004
 715  498.9311
 716  478.7518
 717  389.8955
 718  239.1507
 719  233.2166
 720  248.6077
 721  293.8841
 722  284.0004
 723  373.0749
 724  447.9654
 725  299.1688
 726  153.5854
 727  117.7553
 728  224.0526
 729  230.0198
 730  174.3971
 731  287.8014
 732  440.2753
 733  537.8065
 734  446.9077
 735  457.9044
 736  394.342
 737  446.1415
 738  404.0258
 739  398.6425
 740  173.6949
 741  202.1443
 742  262.5534
 743  375.9587
 744  306.2466
 745  215.3516
 746  207.2405
 747  202.4158
 748  318.4576
 749  419.7794
 750  368.4911
 751  374.6929
 752  382.4398
 753  577.9587
 754  576.8232
 755  451.2754
 756  370.8427
 757  323.05
 758  317.2943
 759  355.6798
 760  324.5658
 761  267.1317
 762  166.6598
 763  212.7503
 764  305.8403
 765  447.278
 766  523.3651
 767  486.899
 768  357.1155
 769  274.7433
 770  253.1102
 771  288.875
 772  373.708
 773  337.454
 774  417.1945
 775  446.8441
 776  430.5844
 777  366.596
 778  425.7096
 779  461.4034
 780  489.3921
 781  486.0143
 782  572.8518
 783  527.7388
 784  521.1794
 785  350.6164
 786  308.7404
 787  278.4012
 788  340.3283
 789  394.7271
 790  459.9155
 791  461.2694
 792  372.1673
 793  183.1577
 794  68.23294
 795  44.85907
 796  136.5424
 797  343.7244
 798  427.7719
 799  474.3947
 800  380.1814
 801  391.6482
 802  344.7354
 803  243.7269
 804  220.9395
 805  210.0774
 806  251.7418
 807  277.1558
 808  381.7732
 809  447.332
 810  427.8682
 811  331.0475
 812  310.6342
 813  281.3312
 814  298.6638
 815  286.0223
 816  227.6945
 817  211.6032
 818  359.019
 819  480.7748
 820  506.1982
 821  303.5181
 822  358.0931
 823  435.5723
 824  480.3049
 825  400.933
 826  427.0215
 827  568.8394
 828  585.1238
 829  515.7739
 830  416.6304
 831  334.7508
 832  281.1128
 833  184.8944
 834  324.871
 835  513.5169
 836  629.3655
 837  578.9144
 838  361.5721
 839  406.2635
 840  273.1571
 841  253.2908
 842  191.754
 843  285.8619
 844  381.1288
 845  326.0027
 846  354.4328
 847  390.4748
 848  472.1691
 849  376.2711
 850  310.3153
 851  249.7637
 852  279.7321
 853  299.0856
 854  373.6396
 855  436.9109
 856  413.3238
 857  392.3953
 858  388.7971
 859  500.135
 860  505.0754
 861  352.4333
 862  246.3447
 863  234.5002
 864  274.1455
 865  295.3901
 866  318.8142
 867  342.7699
 868  326.7594
 869  324.9045
 870  292.4888
 871  91.26355
 872  28.43265
 873  94.2455
 874  218.1721
 875  236.1367
 876  217.2336
 877  266.5213
 878  294.2601
 879  397.5401
 880  401.202
 881  376.5145
 882  296.9494
 883  238.7878
 884  303.7928
 885  290.4958
 886  338.5354
 887  268.635
 888  305.862
 889  247.7446
 890  311.2305
 891  328.8833
 892  388.1429
 893  246.4841
 894  153.441
 895  125.9327
 896  294.0805
 897  390.6318
 898  345.0034
 899  213.8503
 900  140.4721
 901  170.7234
 902  234.2126
 903  240.1083
 904  123.2405
 905  99.56184
 906  59.67371
 907  154.653
 908  122.2053
 909  235.3668
 910  219.9215
 911  185.8494
 912  209.503
 913  257.5329
 914  324.4104
 915  251.0987
 916  210.1005
 917  195.1347
 918  324.1597
 919  363.9143
 920  263.6577
 921  105.1117
 922  19.31488
 923  187.1814
 924  300.8642
 925  397.7494
 926  291.7222
 927  186.3433
 928  145.0919
 929  160.636
 930  186.5699
 931  210.3473
 932  250.9344
 933  423.0103
 934  413.2065
 935  352.1295
 936  174.0208
 937  123.8962
 938  171.1356
 939  197.1279
 940  205.1998
 941  157.342
 942  141.8259
 943  206.5468
 944  302.8599
 945  460.8174
 946  552.2597
 947  553.248
 948  359.7029
 949  199.899
 950  257.0178
 951  280.8029
 952  331.7423
 953  244.3436
 954  280.8415
 955  241.3261
 956  251.3873
 957  160.5011
 958  68.11962
 959  40.9461
 960  133.95
 961  232.5366
 962  209.595
 963  176.9912
 964  172.1472
 965  135.7503
 966  177.3204
 967  165.3803
 968  233.8116
 969  211.3314
 970  205.5988
 971  150.2228
 972  109.9581
 973  100.0633
 974  179.0588
 975  299.6213
 976  473.2087
 977  383.9312
 978  228.7778
 979  119.7261
 980  203.78
 981  338.8384
 982  340.0806
 983  307.7724
 984  263.4214
 985  266.7254
 986  330.7986
 987  246.0651
 988  155.7717
 989  -20.0266
 990  25.86101
 991  75.71222
 992  134.3461
 993  -18.66682
 994  -207.799
 995  -184.327
 996  -127.2661
 997  -57.58944
 998  -159.6606
 999  -182.7066
1000  -47.39888
1001  142.2183
1002  317.929
1003  312.1893
1004  302.3947
1005  259.386
1006  248.4643
1007  206.047
1008  153.7354
1009  139.2253
1010  209.4585
1011  211.6487
1012  198.5171
1013  286.9541
1014  364.2099
1015  317.0359
1016  91.96226
1017  148.7109
1018  213.5814
1019  305.328
1020  147.0816
1021  157.5005
1022  91.67602
1023  205.1653
