# Input file       =  1188005499.110864_cleaned.dat
# Candidate        =  PSR_0332+5434
# Telescope        =  AR
# Epoch_topo       =  57994.063867023891
# Epoch_bary       =  N/A
# T_sample         =  0.002
# Data Folded      =  7340032
# Data Avg         =  0.0241325941876442
# Data StdDev      =  2.31531500295789 
# Profile Bins     =  1024
# Profile Avg      =  173.045390464302 
# Profile StdDev   =  196.023926547308 
# Reduced chi-sqr  =  1.252
# Prob(Noise)      <  5.85e-08   (~5.3 sigma)
# P_topo (ms)      =  714.463349956269  +/- 0.000148
# P'_topo (s/s)    =  -0                +/- 7.79e-11
# P''_topo (s/s^2) =  0                 +/- 3.44e-14
# P_bary (ms)      =  N/A
# P'_bary (s/s)    =  N/A
# P''_bary (s/s^2) =  N/A
# P_orb (s)        =  N/A
# asin(i)/c (s)    =  N/A
# eccentricity     =  N/A
# w (rad)          =  N/A
# T_peri           =  N/A
######################################################
   0  382.2838
   1  300.731
   2  215.8969
   3  114.0265
   4  1.752864
   5  -23.32945
   6  -0.5259244
   7  204.4349
   8  331.6619
   9  330.8682
  10  171.8864
  11  78.06716
  12  47.88031
  13  50.77196
  14  38.86077
  15  26.21219
  16  104.3342
  17  213.1494
  18  175.4552
  19  200.0983
  20  119.6637
  21  132.3298
  22  120.9293
  23  172.7939
  24  198.7366
  25  146.61
  26  114.5156
  27  63.84216
  28  68.91477
  29  62.90909
  30  124.9814
  31  219.1503
  32  247.7807
  33  139.0809
  34  47.43027
  35  101.2642
  36  162.7481
  37  206.7993
  38  174.2453
  39  168.7014
  40  94.84122
  41  31.67143
  42  53.93149
  43  174.2737
  44  230.8797
  45  252.8155
  46  231.2891
  47  182.3109
  48  109.12
  49  60.72578
  50  110.3448
  51  94.38542
  52  137.8487
  53  121.9325
  54  197.9759
  55  127.8825
  56  84.45497
  57  82.09009
  58  88.97853
  59  61.7166
  60  8.958831
  61  80.75713
  62  152.6255
  63  194.8922
  64  156.6697
  65  193.0667
  66  127.9642
  67  154.6249
  68  87.80637
  69  41.97101
  70  84.06681
  71  154.0681
  72  205.9101
  73  65.93767
  74  -51.28602
  75  -100.0787
  76  -46.10427
  77  58.86488
  78  130.3072
  79  131.2942
  80  123.0149
  81  107.8848
  82  190.5342
  83  209.588
  84  205.8515
  85  168.091
  86  68.77991
  87  36.17215
  88  -8.726007
  89  -23.12936
  90  -36.16387
  91  99.27296
  92  145.6854
  93  47.08763
  94  -13.29064
  95  20.40812
  96  46.74156
  97  24.13832
  98  -74.38073
  99  -118.8908
 100  -74.54292
 101  49.30472
 102  102.6348
 103  -35.07382
 104  -119.8219
 105  -70.37149
 106  4.881932
 107  57.97275
 108  101.2381
 109  165.8035
 110  237.5215
 111  298.3156
 112  235.3753
 113  150.9147
 114  66.21261
 115  145.0255
 116  170.4772
 117  221.7561
 118  157.8616
 119  148.5376
 120  79.28051
 121  95.94023
 122  135.8989
 123  166.8095
 124  149.3294
 125  168.9428
 126  156.7234
 127  203.2566
 128  159.1661
 129  264.3626
 130  217.8154
 131  256.3723
 132  168.1092
 133  202.7995
 134  212.9213
 135  211.9081
 136  165.315
 137  118.3716
 138  35.40662
 139  -54.9852
 140  120.5737
 141  256.9409
 142  321.5919
 143  234.637
 144  269.9567
 145  278.2643
 146  179.3259
 147  89.107
 148  5.616366
 149  34.85791
 150  157.4784
 151  232.1262
 152  247.8313
 153  201.106
 154  211.0051
 155  272.4693
 156  247.1306
 157  278.1631
 158  239.3151
 159  287.6825
 160  282.7335
 161  250.8836
 162  265.7635
 163  217.5014
 164  163.8032
 165  90.82551
 166  179.5735
 167  279.5318
 168  339.638
 169  267.6687
 170  122.413
 171  16.66002
 172  34.48745
 173  107.699
 174  145.1971
 175  137.3007
 176  10.13972
 177  -78.08535
 178  27.63674
 179  226.4314
 180  267.1183
 181  190.3533
 182  222.4077
 183  225.8976
 184  123.106
 185  -40.63875
 186  -58.97795
 187  -14.82044
 188  31.99385
 189  81.7008
 190  107.7264
 191  55.1567
 192  72.62619
 193  173.6246
 194  271.1545
 195  318.1026
 196  357.1581
 197  356.7422
 198  252.9911
 199  144.5722
 200  183.5746
 201  258.5449
 202  223.387
 203  106.3699
 204  58.10616
 205  -16.67975
 206  9.34685
 207  -8.078929
 208  126.8411
 209  48.64378
 210  199.8503
 211  162.085
 212  131.7805
 213  0.9225397
 214  -1.50727
 215  146.9767
 216  223.5633
 217  245.7536
 218  127.9133
 219  50.8263
 220  112.075
 221  156.9788
 222  137.4442
 223  160.9167
 224  271.6217
 225  332.5444
 226  288.8379
 227  251.1756
 228  359.5211
 229  457.8888
 230  381.4136
 231  242.0379
 232  158.9763
 233  117.9331
 234  121.6467
 235  118.1939
 236  173.6133
 237  140.5447
 238  159.0243
 239  76.08314
 240  87.26876
 241  53.02651
 242  155.0811
 243  253.5301
 244  351.1403
 245  352.6184
 246  329.1148
 247  285.7607
 248  201.3716
 249  26.0026
 250  27.18686
 251  91.12211
 252  90.89977
 253  74.60116
 254  168.1365
 255  180.5653
 256  69.51762
 257  -37.18232
 258  -12.88838
 259  64.22084
 260  47.43401
 261  61.0203
 262  106.4282
 263  147.5651
 264  130.7742
 265  98.34312
 266  153.4111
 267  162.2935
 268  124.9195
 269  111.8107
 270  253.3753
 271  350.6326
 272  254.588
 273  69.12252
 274  36.81136
 275  232.0526
 276  228.8102
 277  61.92311
 278  -45.67393
 279  68.03768
 280  184.0663
 281  187.2007
 282  116.5232
 283  54.20238
 284  59.08913
 285  208.712
 286  335.0642
 287  326.2357
 288  200.0275
 289  118.7264
 290  213.2201
 291  250.7955
 292  150.9771
 293  67.19938
 294  49.63918
 295  166.9423
 296  192.6802
 297  273.4742
 298  242.1347
 299  366.718
 300  320.9806
 301  248.1943
 302  64.33729
 303  26.76137
 304  153.1505
 305  218.5535
 306  224.7099
 307  128.1259
 308  144.6595
 309  144.4295
 310  188.2628
 311  185.5284
 312  207.0485
 313  205.1847
 314  180.9839
 315  220.064
 316  347.5372
 317  337.3019
 318  212.8141
 319  177.9859
 320  145.8969
 321  109.4251
 322  36.16331
 323  86.52853
 324  170.2997
 325  105.4494
 326  106.5821
 327  96.80754
 328  149.8696
 329  99.63171
 330  17.98565
 331  -57.38403
 332  18.34914
 333  99.06915
 334  191.8668
 335  46.67678
 336  4.719295
 337  -59.26805
 338  0.6685411
 339  82.09987
 340  218.8945
 341  212.9363
 342  171.0359
 343  104.6546
 344  171.3335
 345  310.7588
 346  341.9853
 347  190.6936
 348  49.57273
 349  80.21883
 350  158.9388
 351  123.3205
 352  109.4626
 353  165.3979
 354  205.4671
 355  182.9996
 356  171.7915
 357  109.226
 358  161.9715
 359  181.1524
 360  245.8697
 361  196.5691
 362  286.3322
 363  226.7301
 364  105.3222
 365  -24.78593
 366  41.02589
 367  163.9653
 368  164.5397
 369  215.3257
 370  202.9059
 371  181.5586
 372  166.8655
 373  218.4725
 374  211.6406
 375  -1.556209
 376  -58.02958
 377  18.47098
 378  140.2866
 379  158.7398
 380  115.9541
 381  167.287
 382  237.1068
 383  282.2142
 384  276.6843
 385  126.228
 386  107.0059
 387  135.3958
 388  214.4379
 389  288.6508
 390  314.1552
 391  303.7516
 392  208.907
 393  109.5542
 394  102.5195
 395  13.17222
 396  6.752406
 397  71.55387
 398  168.3272
 399  171.4249
 400  89.11706
 401  88.01397
 402  160.4143
 403  237.3653
 404  224.6548
 405  264.5793
 406  251.0686
 407  263.0306
 408  102.0471
 409  99.36742
 410  170.7072
 411  273.886
 412  195.4967
 413  84.43456
 414  25.26434
 415  7.737812
 416  8.177467
 417  76.85606
 418  212.8062
 419  319.8748
 420  353.8099
 421  293.9296
 422  154.4333
 423  52.40386
 424  -70.34063
 425  37.27293
 426  167.3218
 427  305.8179
 428  283.4768
 429  247.7485
 430  203.9683
 431  173.3429
 432  67.50917
 433  155.8201
 434  160.8812
 435  238.9759
 436  187.5171
 437  260.543
 438  293.7435
 439  336.7494
 440  265.0011
 441  194.6733
 442  148.0696
 443  135.193
 444  212.4491
 445  204.4738
 446  219.0115
 447  205.423
 448  299.0949
 449  308.1273
 450  306.781
 451  229.5267
 452  103.8375
 453  -1.77082
 454  81.29087
 455  257.6033
 456  349.3003
 457  227.5327
 458  85.02866
 459  -63.58491
 460  -13.7929
 461  75.02623
 462  133.173
 463  121.023
 464  25.46525
 465  94.05902
 466  90.43948
 467  129.3969
 468  40.40686
 469  76.31232
 470  129.3054
 471  177.3786
 472  113.5781
 473  -23.16094
 474  -19.32833
 475  48.21524
 476  246.0424
 477  292.0968
 478  316.7228
 479  256.5931
 480  192.9185
 481  148.4541
 482  101.6307
 483  110.176
 484  82.06345
 485  178.8972
 486  159.1727
 487  130.5094
 488  75.04308
 489  198.8146
 490  222.1516
 491  194.4624
 492  92.27385
 493  165.4031
 494  338.8106
 495  427.2051
 496  319.6658
 497  127.7458
 498  153.0468
 499  186.4311
 500  143.4806
 501  99.07788
 502  172.364
 503  290.571
 504  384.6956
 505  276.0129
 506  206.1222
 507  123.9304
 508  228.8889
 509  281.1608
 510  288.3528
 511  158.3888
 512  82.6413
 513  73.33855
 514  78.20842
 515  70.79776
 516  29.3892
 517  137.3969
 518  117.8158
 519  166.4453
 520  152.2427
 521  144.665
 522  165.9714
 523  126.4192
 524  105.8185
 525  8.631874
 526  52.75323
 527  138.8573
 528  155.4005
 529  115.5344
 530  201.1738
 531  341.8104
 532  340.2616
 533  276.2648
 534  249.0376
 535  313.514
 536  219.9592
 537  112.1146
 538  138.8956
 539  112.483
 540  109.1478
 541  114.7905
 542  140.6438
 543  203.678
 544  111.2257
 545  126.4616
 546  85.37572
 547  126.4436
 548  237.0993
 549  129.4198
 550  94.65677
 551  85.20596
 552  149.9797
 553  80.74477
 554  27.15747
 555  35.31399
 556  136.3078
 557  252.0324
 558  290.0266
 559  253.8885
 560  164.4152
 561  224.078
 562  278.8346
 563  195.2263
 564  121.1217
 565  72.65477
 566  114.0247
 567  59.12822
 568  87.09579
 569  165.2119
 570  289.1209
 571  258.4293
 572  233.1805
 573  193.919
 574  151.2505
 575  137.7859
 576  186.5249
 577  205.9274
 578  190.1558
 579  231.0195
 580  309.0266
 581  400.1483
 582  413.8952
 583  316.8892
 584  244.3578
 585  204.3413
 586  332.1315
 587  286.4927
 588  192.4243
 589  63.76921
 590  78.15984
 591  135.6933
 592  134.8127
 593  121.1089
 594  152.7924
 595  262.6633
 596  235.5033
 597  128.468
 598  108.5869
 599  246.1335
 600  356.6398
 601  362.1292
 602  327.5273
 603  290.6768
 604  207.0685
 605  143.0245
 606  139.0131
 607  200.9619
 608  267.2379
 609  204.9077
 610  235.6847
 611  213.1523
 612  193.1087
 613  17.98929
 614  -74.13637
 615  -63.49218
 616  29.62689
 617  54.18344
 618  159.617
 619  187.6747
 620  233.9335
 621  117.4852
 622  71.1949
 623  77.49772
 624  168.1301
 625  130.8285
 626  208.1434
 627  231.2902
 628  312.8686
 629  372.7603
 630  369.1588
 631  350.0086
 632  269.7358
 633  345.928
 634  426.0227
 635  460.5116
 636  452.8758
 637  453.9325
 638  489.1048
 639  558.3083
 640  559.3207
 641  589.2209
 642  605.9332
 643  671.767
 644  739.0551
 645  853.2062
 646  924.4271
 647  940.392
 648  823.998
 649  736.0242
 650  647.7247
 651  497.9818
 652  390.0923
 653  343.0227
 654  315.52
 655  272.4668
 656  273.1426
 657  225.3918
 658  163.02
 659  145.493
 660  200.8927
 661  98.99414
 662  41.16479
 663  34.56958
 664  99.41407
 665  158.1368
 666  209.7071
 667  279.4825
 668  261.933
 669  241.617
 670  297.3416
 671  277.0025
 672  186.6275
 673  113.3603
 674  140.4228
 675  217.3436
 676  271.6606
 677  291.9825
 678  142.7774
 679  -76.23602
 680  -171.664
 681  -51.30307
 682  66.69465
 683  228.1505
 684  336.5134
 685  352.0386
 686  200.7567
 687  141.0899
 688  246.7688
 689  223.2982
 690  180.0057
 691  92.36874
 692  71.71041
 693  59.00381
 694  167.6587
 695  254.4611
 696  209.3094
 697  125.6939
 698  106.8192
 699  126.9086
 700  139.6492
 701  162.4775
 702  188.6637
 703  157.6819
 704  120.6303
 705  159.2894
 706  284.5005
 707  290.6404
 708  269.1892
 709  242.5808
 710  365.6306
 711  375.2647
 712  252.0288
 713  83.09893
 714  70.35535
 715  212.1135
 716  245.5978
 717  145.0549
 718  187.2678
 719  288.9672
 720  375.9587
 721  319.2489
 722  254.4023
 723  195.1723
 724  244.0222
 725  183.4182
 726  122.5898
 727  133.4769
 728  230.3846
 729  248.1307
 730  249.4872
 731  252.5169
 732  213.1211
 733  180.3977
 734  212.3448
 735  209.4115
 736  82.11949
 737  5.234982
 738  51.81794
 739  137.5117
 740  134.9432
 741  147.9819
 742  197.1525
 743  329.0336
 744  256.4415
 745  150.7931
 746  43.91582
 747  115.3673
 748  243.5185
 749  267.4207
 750  216.0739
 751  233.9089
 752  165.7367
 753  116.5223
 754  56.41354
 755  141.267
 756  232.423
 757  247.8602
 758  112.1928
 759  87.85183
 760  94.24677
 761  186.9437
 762  188.7475
 763  145.353
 764  144.4996
 765  35.69843
 766  10.52887
 767  58.60048
 768  192.144
 769  292.9711
 770  215.0197
 771  170.9068
 772  171.4169
 773  308.0488
 774  398.0825
 775  349.8421
 776  213.7642
 777  47.02612
 778  -14.35667
 779  -39.34567
 780  72.6133
 781  130.522
 782  224.5631
 783  268.8279
 784  259.3524
 785  205.6853
 786  137.2879
 787  70.01409
 788  77.89407
 789  140.011
 790  255.2444
 791  223.4035
 792  171.6673
 793  107.4475
 794  97.15034
 795  117.8774
 796  151.1094
 797  166.7269
 798  88.97871
 799  145.2655
 800  186.7752
 801  184.7137
 802  108.2236
 803  3.86549
 804  -76.80428
 805  -46.15275
 806  110.7992
 807  230.7546
 808  172.3083
 809  187.3524
 810  136.4452
 811  177.4566
 812  185.0625
 813  246.8264
 814  307.0494
 815  378.7912
 816  416.0212
 817  233.8502
 818  189.9568
 819  80.39159
 820  21.96511
 821  -56.29418
 822  37.6149
 823  232.4554
 824  312.255
 825  311.8573
 826  200.1884
 827  191.0396
 828  251.9376
 829  359.0979
 830  313.3164
 831  243.378
 832  163.8792
 833  178.7428
 834  171.1913
 835  188.7289
 836  142.882
 837  130.6488
 838  186.6763
 839  211.286
 840  171.0215
 841  123.4612
 842  171.4515
 843  308.5006
 844  400.2632
 845  403.3793
 846  285.7743
 847  254.9985
 848  250.5559
 849  255.6658
 850  142.6329
 851  147.0474
 852  124.4764
 853  207.2298
 854  163.8728
 855  138.6651
 856  147.733
 857  288.9101
 858  403.8988
 859  373.4956
 860  300.6909
 861  141.7424
 862  66.5517
 863  22.11196
 864  178.9661
 865  176.1587
 866  218.4972
 867  266.3623
 868  264.2549
 869  261.7899
 870  276.1924
 871  361.3499
 872  408.5069
 873  418.5234
 874  338.5034
 875  262.3072
 876  168.1154
 877  256.5685
 878  212.5383
 879  198.6894
 880  155.26
 881  222.7225
 882  215.8984
 883  223.2619
 884  110.2473
 885  170.6314
 886  188.7958
 887  296.0578
 888  273.9976
 889  237.4221
 890  213.6843
 891  336.8958
 892  380.7321
 893  337.8597
 894  269.1332
 895  210.0663
 896  118.6436
 897  52.42387
 898  71.63627
 899  85.17239
 900  11.17875
 901  108.74
 902  198.9127
 903  264.3367
 904  154.1881
 905  129.9847
 906  109.306
 907  210.4214
 908  225.6844
 909  197.8339
 910  164.1061
 911  218.1253
 912  219.1452
 913  203.0189
 914  131.986
 915  196.9542
 916  188.2136
 917  113.2685
 918  116.6068
 919  225.7118
 920  273.7237
 921  218.2539
 922  162.8544
 923  221.6708
 924  203.3113
 925  130.9456
 926  -39.86171
 927  -15.83026
 928  -37.00678
 929  55.09883
 930  29.57914
 931  175.5049
 932  211.6841
 933  339.9212
 934  282.378
 935  195.4173
 936  85.97008
 937  66.71058
 938  126.3361
 939  126.1612
 940  40.89167
 941  -85.64192
 942  -70.33189
 943  36.43299
 944  105.7561
 945  72.84692
 946  149.5798
 947  164.4186
 948  252.1581
 949  185.3093
 950  217.4469
 951  108.1013
 952  229.4825
 953  201.5795
 954  278.6438
 955  269.2031
 956  195.4894
 957  172.4636
 958  150.1918
 959  240.4756
 960  245.1365
 961  273.475
 962  222.8107
 963  235.0544
 964  209.7045
 965  266.8442
 966  256.4143
 967  383.3053
 968  410.1879
 969  325.941
 970  256.4782
 971  280.6482
 972  330.5114
 973  162.5249
 974  -41.16348
 975  -23.99439
 976  134.812
 977  292.2055
 978  282.0186
 979  293.1585
 980  208.8207
 981  196.1663
 982  109.7817
 983  15.16648
 984  -29.66375
 985  12.28144
 986  40.52149
 987  -22.909
 988  -7.173841
 989  132.622
 990  211.2127
 991  242.7594
 992  221.8607
 993  263.1654
 994  250.3099
 995  256.4618
 996  183.8177
 997  107.1769
 998  36.00491
 999  56.12877
1000  220.9861
1001  286.2668
1002  348.9362
1003  208.7056
1004  201.8394
1005  142.9765
1006  170.1407
1007  6.459033
1008  -47.74101
1009  -51.41364
1010  81.78656
1011  201.8267
1012  247.8006
1013  215.2505
1014  183.6223
1015  193.3291
1016  116.3548
1017  -23.21685
1018  -43.06066
1019  -73.10289
1020  -7.150028
1021  64.78775
1022  238.0582
1023  325.7054
