# Input file       =  1189039511.117748_cleaned.dat
# Candidate        =  PSR_0332+5434
# Telescope        =  AR
# Epoch_topo       =  58006.031598585047
# Epoch_bary       =  N/A
# T_sample         =  0.002
# Data Folded      =  7340032
# Data Avg         =  0.0161763970806663
# Data StdDev      =  2.37860941856292 
# Profile Bins     =  1024
# Profile Avg      =  115.901042482558 
# Profile StdDev   =  201.38268760555  
# Reduced chi-sqr  =  1.228
# Prob(Noise)      <  7.37e-07   (~4.8 sigma)
# P_topo (ms)      =  714.464664387823  +/- 0.000201
# P'_topo (s/s)    =  -0                +/- 1.06e-10
# P''_topo (s/s^2) =  0                 +/- 4.69e-14
# P_bary (ms)      =  N/A
# P'_bary (s/s)    =  N/A
# P''_bary (s/s^2) =  N/A
# P_orb (s)        =  N/A
# asin(i)/c (s)    =  N/A
# eccentricity     =  N/A
# w (rad)          =  N/A
# T_peri           =  N/A
######################################################
   0  85.92329
   1  47.74133
   2  -2.64595
   3  82.60094
   4  123.0669
   5  65.13369
   6  -80.62927
   7  31.51859
   8  85.70791
   9  159.8788
  10  134.1419
  11  145.2093
  12  89.35056
  13  -5.598811
  14  -40.83799
  15  118.1008
  16  185.3757
  17  172.7867
  18  20.09225
  19  -37.25484
  20  0.8175835
  21  62.49373
  22  154.3768
  23  211.629
  24  228.0915
  25  135.3993
  26  44.37189
  27  4.83338
  28  2.046937
  29  -0.4145483
  30  9.856289
  31  104.1217
  32  105.7009
  33  154.4439
  34  131.5787
  35  205.2076
  36  152.7384
  37  176.6713
  38  199.417
  39  195.1935
  40  159.1587
  41  134.8374
  42  88.61124
  43  89.89664
  44  -1.19073
  45  59.14175
  46  -25.90337
  47  109.8058
  48  154.9023
  49  282.3989
  50  179.9949
  51  177.6091
  52  170.8417
  53  209.1455
  54  194.8638
  55  254.1575
  56  207.7693
  57  186.0594
  58  66.81334
  59  68.23824
  60  28.84075
  61  31.21709
  62  31.2485
  63  -19.172
  64  -16.06066
  65  45.19135
  66  217.5413
  67  307.6219
  68  260.2484
  69  220.8579
  70  140.6278
  71  103.7548
  72  0.8893328
  73  42.11268
  74  81.13611
  75  171.0334
  76  71.85777
  77  -36.48442
  78  -129.0011
  79  -6.451475
  80  106.4791
  81  194.274
  82  156.4356
  83  124.6168
  84  68.45746
  85  81.09193
  86  110.1508
  87  114.2428
  88  131.2531
  89  178.1314
  90  264.1439
  91  301.0936
  92  275.7655
  93  130.1319
  94  -12.46155
  95  -93.20026
  96  -8.144131
  97  122.2716
  98  212.2394
  99  155.2236
 100  97.72021
 101  110.7707
 102  163.7684
 103  198.5611
 104  188.1015
 105  202.4236
 106  208.2132
 107  235.7609
 108  246.4589
 109  226.7432
 110  94.47721
 111  93.31242
 112  31.39792
 113  91.35795
 114  60.27207
 115  38.87197
 116  26.46836
 117  -104.2733
 118  -10.84557
 119  -52.78812
 120  80.56015
 121  45.43131
 122  125.3801
 123  112.1696
 124  117.5527
 125  61.76597
 126  4.260768
 127  -32.82388
 128  14.82393
 129  153.4886
 130  274.3259
 131  189.4413
 132  26.15015
 133  -190.6733
 134  -74.27922
 135  34.01059
 136  121.0692
 137  1.343206
 138  49.27758
 139  159.8828
 140  233.7623
 141  282.7952
 142  276.2857
 143  302.8671
 144  234.9777
 145  345.6088
 146  372.0742
 147  366.2432
 148  355.3026
 149  290.2221
 150  162.128
 151  114.6789
 152  64.42268
 153  123.0474
 154  155.3922
 155  176.9841
 156  181.9228
 157  89.73193
 158  76.4771
 159  182.0421
 160  289.9778
 161  362.6759
 162  254.033
 163  227.5872
 164  240.8278
 165  270.1241
 166  222.4191
 167  137.3138
 168  75.61716
 169  182.4752
 170  243.4838
 171  178.9688
 172  67.71785
 173  31.69672
 174  60.81612
 175  139.0917
 176  241.7534
 177  253.4766
 178  111.5118
 179  24.46336
 180  38.65427
 181  96.83626
 182  169.0512
 183  215.4662
 184  202.7661
 185  163.5424
 186  106.415
 187  1.400791
 188  -40.84125
 189  -49.83224
 190  -3.543042
 191  175.7146
 192  360.7101
 193  424.9268
 194  292.6329
 195  106.8869
 196  81.30271
 197  51.04078
 198  115.0131
 199  79.6089
 200  87.939
 201  173.9891
 202  195.7785
 203  159.9068
 204  100.3137
 205  179.0608
 206  290.4534
 207  195.8004
 208  130.5071
 209  -18.38447
 210  -33.46204
 211  -38.36374
 212  99.08095
 213  209.1298
 214  189.1798
 215  135.8909
 216  37.68327
 217  27.27071
 218  109.8828
 219  82.28369
 220  173.5439
 221  167.1401
 222  223.7701
 223  120.6177
 224  84.61649
 225  18.21733
 226  -8.889702
 227  3.174444
 228  118.7396
 229  109.6829
 230  29.84967
 231  27.82542
 232  148.3254
 233  230.4958
 234  90.36337
 235  -65.80405
 236  -102.7947
 237  66.43205
 238  168.4153
 239  133.3807
 240  -18.79959
 241  8.025167
 242  43.15004
 243  40.6092
 244  -49.97608
 245  -24.25878
 246  55.52959
 247  44.07647
 248  26.16487
 249  -27.07484
 250  57.75544
 251  60.97831
 252  58.25393
 253  124.9001
 254  159.9736
 255  223.9456
 256  91.00583
 257  9.872561
 258  -33.57444
 259  75.84834
 260  246.9707
 261  336.1151
 262  351.2233
 263  293.5044
 264  255.8367
 265  249.8081
 266  128.3137
 267  -23.33323
 268  -103.5116
 269  -145.0291
 270  -89.82411
 271  33.04551
 272  115.8526
 273  173.5549
 274  243.9447
 275  311.7487
 276  218.0511
 277  50.92151
 278  42.32962
 279  99.98328
 280  265.9458
 281  203.8767
 282  223.4993
 283  156.2815
 284  109.4746
 285  96.28836
 286  176.2497
 287  264.757
 288  230.6764
 289  279.9953
 290  216.7864
 291  220.5084
 292  103.5312
 293  197.3457
 294  258.8485
 295  315.8515
 296  253.297
 297  180.1034
 298  274.5229
 299  191.469
 300  175.3288
 301  70.38413
 302  129.3317
 303  155.7232
 304  157.447
 305  83.71924
 306  -3.041158
 307  99.90568
 308  115.414
 309  147.4841
 310  114.0756
 311  228.6655
 312  239.8039
 313  227.7651
 314  245.6555
 315  293.6911
 316  165.3301
 317  38.12495
 318  -57.71635
 319  -18.94023
 320  22.8939
 321  78.24249
 322  98.85491
 323  67.11897
 324  118.8877
 325  191.4052
 326  245.4257
 327  106.0788
 328  16.52909
 329  -88.92889
 330  76.23831
 331  192.9523
 332  350.2408
 333  338.9503
 334  205.6121
 335  51.3889
 336  8.929074
 337  108.4341
 338  26.58156
 339  -28.7885
 340  -65.27885
 341  51.43889
 342  102.5892
 343  212.3732
 344  182.6769
 345  156.5227
 346  43.84633
 347  160.7898
 348  139.2957
 349  163.3705
 350  130.614
 351  67.0174
 352  8.239698
 353  -73.12306
 354  9.132989
 355  35.17945
 356  50.95374
 357  43.81928
 358  56.71826
 359  82.7989
 360  88.09229
 361  161.1629
 362  230.3762
 363  245.2205
 364  129.5378
 365  -65.37167
 366  -118.4578
 367  25.05382
 368  205.8999
 369  236.5418
 370  239.6778
 371  167.1053
 372  196.3544
 373  109.5454
 374  90.30677
 375  31.72485
 376  80.15378
 377  248.7874
 378  176.5492
 379  120.2561
 380  87.32306
 381  182.8679
 382  210.4978
 383  119.2932
 384  20.75339
 385  161.3883
 386  219.7846
 387  214.9935
 388  -25.6824
 389  -66.77985
 390  -40.64037
 391  14.62262
 392  100.7129
 393  173.846
 394  145.7956
 395  -44.19695
 396  -189.4062
 397  -109.8822
 398  15.27208
 399  171.3642
 400  207.9894
 401  300.7049
 402  215.2179
 403  174.8006
 404  200.7163
 405  233.1879
 406  184.0317
 407  94.99908
 408  133.9068
 409  198.4533
 410  130.2811
 411  42.84488
 412  -17.75935
 413  -75.80158
 414  -74.31679
 415  -126.3046
 416  -38.75175
 417  100.1805
 418  179.0236
 419  277.8732
 420  168.1867
 421  126.78
 422  108.2432
 423  174.5994
 424  144.2943
 425  125.11
 426  159.3266
 427  225.6494
 428  268.4171
 429  179.3244
 430  176.1314
 431  134.127
 432  124.0941
 433  6.284925
 434  14.88984
 435  -26.66442
 436  35.5418
 437  53.77732
 438  198.5735
 439  250.0418
 440  114.4884
 441  -8.045402
 442  -45.04715
 443  34.17962
 444  -6.199787
 445  3.152663
 446  58.23048
 447  121.7573
 448  91.62338
 449  100.9035
 450  178.7905
 451  217.7775
 452  223.7903
 453  172.1571
 454  92.8465
 455  114.1185
 456  51.95042
 457  93.20097
 458  15.20169
 459  149.5145
 460  156.4455
 461  177.0624
 462  85.47195
 463  161.6397
 464  257.1613
 465  279.6169
 466  84.0278
 467  35.04603
 468  41.17889
 469  120.146
 470  91.56942
 471  91.00387
 472  79.49609
 473  132.5643
 474  118.4141
 475  191.0132
 476  179.6439
 477  265.0478
 478  252.1194
 479  188.3944
 480  99.63284
 481  15.13324
 482  53.24616
 483  72.68776
 484  103.268
 485  117.0769
 486  73.95119
 487  59.0172
 488  47.81194
 489  152.3499
 490  216.0847
 491  264.9314
 492  215.0454
 493  195.1613
 494  162.1979
 495  169.1998
 496  262.9965
 497  322.1783
 498  265.1317
 499  215.2342
 500  199.6729
 501  269.3324
 502  229.1464
 503  204.7988
 504  178.7208
 505  160.834
 506  152.4171
 507  138.2555
 508  62.13157
 509  -74.50049
 510  -175.9751
 511  -195.8258
 512  -107.7009
 513  -40.63252
 514  39.95497
 515  79.87621
 516  -18.5489
 517  -9.93154
 518  14.98474
 519  29.55103
 520  13.35596
 521  112.3547
 522  174.3336
 523  86.82195
 524  47.89461
 525  143.401
 526  249.5483
 527  156.1164
 528  112.4308
 529  19.13457
 530  17.48781
 531  -130.7025
 532  -73.41764
 533  -64.51778
 534  18.12922
 535  89.95156
 536  166.5914
 537  225.7315
 538  181.3084
 539  118.4385
 540  91.28008
 541  181.101
 542  171.8919
 543  184.8327
 544  23.40697
 545  -61.52579
 546  -144.1491
 547  -11.17051
 548  102.3192
 549  152.9772
 550  148.4539
 551  63.14771
 552  41.26187
 553  25.6569
 554  55.13151
 555  69.66969
 556  72.61371
 557  145.4565
 558  136.6357
 559  147.9956
 560  62.59784
 561  25.2277
 562  72.98921
 563  50.58013
 564  110.0202
 565  -11.30565
 566  9.661413
 567  -6.064049
 568  46.08717
 569  36.79623
 570  19.4375
 571  37.46423
 572  100.1221
 573  253.9806
 574  237.4061
 575  161.442
 576  83.45631
 577  132.9532
 578  240.236
 579  311.8617
 580  304.0579
 581  215.8149
 582  103.5752
 583  95.60142
 584  144.8677
 585  150.9364
 586  155.7797
 587  41.12917
 588  44.06761
 589  64.62206
 590  94.1293
 591  106.7542
 592  84.96554
 593  31.54497
 594  -19.35991
 595  -23.2508
 596  112.799
 597  130.3463
 598  149.0627
 599  98.31274
 600  141.5784
 601  124.8734
 602  128.3511
 603  112.4504
 604  126.3101
 605  228.3772
 606  152.3419
 607  149.5425
 608  14.28401
 609  69.2469
 610  203.5701
 611  266.2547
 612  304.0561
 613  183.166
 614  155.3833
 615  9.225698
 616  101.4009
 617  211.6447
 618  365.1933
 619  305.042
 620  246.9274
 621  229.1645
 622  182.1267
 623  137.2089
 624  161.4504
 625  166.0099
 626  188.1317
 627  221.3275
 628  253.5216
 629  212.9217
 630  139.2315
 631  116.8913
 632  59.03251
 633  112.0386
 634  205.2594
 635  321.4543
 636  382.9081
 637  383.0106
 638  335.0506
 639  420.5942
 640  552.0328
 641  741.5704
 642  832.356
 643  907.756
 644  877.0544
 645  861.7815
 646  808.4563
 647  700.0914
 648  619.9248
 649  495.9479
 650  350.0067
 651  109.7142
 652  56.534
 653  52.39251
 654  152.531
 655  250.8812
 656  278.7056
 657  190.9152
 658  113.0147
 659  83.22173
 660  12.31438
 661  51.98654
 662  -24.63116
 663  96.83062
 664  132.0891
 665  246.0143
 666  221.9533
 667  282.977
 668  253.1467
 669  177.6112
 670  127.4284
 671  178.8941
 672  183.5493
 673  190.513
 674  107.5762
 675  83.9981
 676  87.89195
 677  124.1212
 678  130.2354
 679  139.2521
 680  198.6049
 681  203.1417
 682  111.7015
 683  -34.4018
 684  -59.21929
 685  -83.40052
 686  -8.870843
 687  -88.13748
 688  -68.86198
 689  -71.09376
 690  -78.53437
 691  -85.38096
 692  -122.0611
 693  -39.61057
 694  13.66673
 695  144.9953
 696  217.32
 697  219.0535
 698  119.9023
 699  127.5287
 700  62.26072
 701  41.75579
 702  99.45988
 703  30.585
 704  -47.27807
 705  -218.2443
 706  -86.31606
 707  -16.99014
 708  114.5413
 709  111.649
 710  178.6786
 711  114.3212
 712  109.3653
 713  34.47262
 714  75.07973
 715  60.14645
 716  119.6808
 717  35.41365
 718  107.0128
 719  72.12359
 720  98.38809
 721  -35.67249
 722  -173.8727
 723  -197.3833
 724  -84.18402
 725  50.18963
 726  21.21416
 727  -5.739328
 728  105.9208
 729  117.0932
 730  80.79952
 731  1.410515
 732  105.8493
 733  146.0414
 734  227.6599
 735  156.7468
 736  136.1404
 737  61.00511
 738  82.65678
 739  101.7266
 740  124.3762
 741  169.2564
 742  63.51085
 743  -2.534956
 744  -86.53131
 745  -45.61845
 746  22.34228
 747  113.7324
 748  130.3254
 749  6.497298
 750  -83.66292
 751  3.35748
 752  131.5083
 753  146.3491
 754  220.4446
 755  194.3819
 756  262.2131
 757  144.1513
 758  182.7279
 759  122.7187
 760  103.784
 761  10.97062
 762  -83.51263
 763  -144.782
 764  -58.84877
 765  4.149275
 766  51.11492
 767  12.30833
 768  38.44845
 769  115.2401
 770  90.89848
 771  114.3246
 772  78.66284
 773  162.4741
 774  180.6879
 775  150.0491
 776  5.180356
 777  -181.3991
 778  -137.8131
 779  -31.61555
 780  134.5629
 781  111.7866
 782  21.47038
 783  44.7196
 784  93.5733
 785  201.7502
 786  152.0425
 787  81.69717
 788  35.44639
 789  -35.02573
 790  5.640677
 791  -0.4778517
 792  -19.76803
 793  -122.693
 794  -149.5333
 795  -69.45876
 796  22.45542
 797  117.3182
 798  86.39162
 799  44.99503
 800  74.6453
 801  99.27702
 802  90.22197
 803  4.86876
 804  23.70455
 805  21.41175
 806  140.5474
 807  223.3825
 808  263.9005
 809  274.286
 810  204.4205
 811  248.1954
 812  190.3567
 813  172.7783
 814  47.319
 815  135.5905
 816  303.2853
 817  354.8067
 818  287.7821
 819  218.3031
 820  253.7137
 821  199.5212
 822  140.3065
 823  86.8241
 824  173.6094
 825  246.8113
 826  230.8807
 827  199.3433
 828  220.8338
 829  245.4361
 830  128.8855
 831  49.71568
 832  66.00482
 833  130.5044
 834  61.14851
 835  -99.96612
 836  -128.7003
 837  -48.98809
 838  -32.98403
 839  28.94103
 840  103.3762
 841  125.7931
 842  44.93918
 843  96.57098
 844  99.79449
 845  95.98454
 846  44.53477
 847  76.43951
 848  100.2618
 849  113.6452
 850  105.0573
 851  64.35416
 852  48.49134
 853  61.57093
 854  64.18028
 855  -6.986626
 856  21.0695
 857  112.2779
 858  176.685
 859  123.4295
 860  90.42413
 861  116.5416
 862  96.98605
 863  90.47934
 864  145.1763
 865  314.5717
 866  309.2885
 867  224.5787
 868  158.892
 869  150.0007
 870  179.3338
 871  129.5667
 872  185.3776
 873  199.7315
 874  106.1181
 875  18.59572
 876  11.39664
 877  105.423
 878  170.925
 879  148.5854
 880  141.5781
 881  93.63893
 882  172.2831
 883  147.7752
 884  187.1518
 885  241.4296
 886  235.6451
 887  196.6639
 888  178.1023
 889  190.2714
 890  210.1777
 891  62.53665
 892  34.66403
 893  42.22919
 894  38.15784
 895  79.26926
 896  117.6518
 897  285.468
 898  238.7445
 899  237.1884
 900  271.2523
 901  378.3496
 902  347.5594
 903  196.6588
 904  84.46218
 905  55.59314
 906  134.1149
 907  114.7656
 908  114.4618
 909  146.5625
 910  228.4272
 911  204.773
 912  42.39719
 913  44.85005
 914  144.2663
 915  202.1922
 916  171.4244
 917  104.9805
 918  131.3577
 919  242.6049
 920  379.2965
 921  472.136
 922  263.41
 923  133.8416
 924  23.94778
 925  66.87295
 926  126.165
 927  150.2932
 928  126.0915
 929  82.43263
 930  38.31734
 931  2.439874
 932  -3.878649
 933  33.69056
 934  105.8619
 935  123.8677
 936  34.16142
 937  -72.77478
 938  -51.21799
 939  -4.375887
 940  82.78132
 941  118.5175
 942  170.3575
 943  218.6931
 944  162.0684
 945  139.2348
 946  104.779
 947  84.9577
 948  24.02668
 949  -30.48252
 950  58.11135
 951  62.82896
 952  105.0673
 953  56.35373
 954  60.25588
 955  5.702353
 956  -33.00076
 957  47.47121
 958  166.9173
 959  140.2249
 960  80.12114
 961  60.88497
 962  102.7543
 963  48.35723
 964  42.55264
 965  -43.38825
 966  -31.70016
 967  -77.19448
 968  -8.529272
 969  -35.26894
 970  31.53569
 971  59.82188
 972  45.36569
 973  -65.36472
 974  -109.9389
 975  -77.24012
 976  -101.0375
 977  -38.37083
 978  65.31162
 979  118.4513
 980  153.6298
 981  180.524
 982  185.3809
 983  193.8302
 984  180.1189
 985  238.3257
 986  204.2437
 987  156.3422
 988  127.3347
 989  122.4197
 990  141.4548
 991  64.59724
 992  36.5134
 993  -17.93356
 994  -66.99166
 995  -107.2566
 996  -87.2056
 997  -109.5194
 998  -109.7436
 999  -8.603879
1000  146.9559
1001  192.9538
1002  118.8347
1003  134.568
1004  225.9896
1005  166.0453
1006  -27.14637
1007  -40.85295
1008  183.0283
1009  355.6696
1010  310.8314
1011  266.5812
1012  247.2883
1013  205.4175
1014  60.30907
1015  -55.38286
1016  -1.195651
1017  129.7201
1018  118.3919
1019  84.10161
1020  27.64747
1021  149.1776
1022  99.4184
1023  99.61925
