# Input file       =  1189901180.110496_cleaned.dat
# Candidate        =  PSR_0332+5434
# Telescope        =  AR
# Epoch_topo       =  58016.004619334446
# Epoch_bary       =  N/A
# T_sample         =  0.002
# Data Folded      =  7340032
# Data Avg         =  0.0214104923278292
# Data StdDev      =  2.43663420761904 
# Profile Bins     =  1024
# Profile Avg      =  153.564557418076 
# Profile StdDev   =  206.295300780573 
# Reduced chi-sqr  =  1.428
# Prob(Noise)      <  4.9e-18   (~8.6 sigma)
# P_topo (ms)      =  714.46752925878   +/- 0.00012
# P'_topo (s/s)    =  -0                +/- 6.36e-11
# P''_topo (s/s^2) =  0                 +/- 2.81e-14
# P_bary (ms)      =  N/A
# P'_bary (s/s)    =  N/A
# P''_bary (s/s^2) =  N/A
# P_orb (s)        =  N/A
# asin(i)/c (s)    =  N/A
# eccentricity     =  N/A
# w (rad)          =  N/A
# T_peri           =  N/A
######################################################
   0  101.7398
   1  116.3603
   2  27.75381
   3  26.24326
   4  98.97137
   5  99.6892
   6  161.9016
   7  184.4357
   8  139.1689
   9  96.61069
  10  95.38147
  11  119.1452
  12  94.76412
  13  -30.82294
  14  45.84679
  15  105.3406
  16  145.9632
  17  25.87375
  18  6.37453
  19  33.05815
  20  203.7881
  21  284.9743
  22  222.2324
  23  150.0595
  24  90.05922
  25  178.4403
  26  193.4822
  27  273.616
  28  207.498
  29  186.8438
  30  140.6212
  31  233.9722
  32  239.6274
  33  305.7348
  34  203.1379
  35  166.8518
  36  89.55159
  37  59.12404
  38  -3.987262
  39  -17.99138
  40  -39.36503
  41  5.074252
  42  48.72303
  43  128.4993
  44  1.530649
  45  -84.72034
  46  -100.0125
  47  -51.42792
  48  -27.07405
  49  -14.93164
  50  84.4408
  51  64.49605
  52  38.08977
  53  49.82848
  54  191.39
  55  181.7195
  56  139.6784
  57  28.04211
  58  1.103106
  59  12.24317
  60  60.37128
  61  138.1805
  62  190.1837
  63  154.9847
  64  116.8679
  65  72.94836
  66  15.48843
  67  -21.61766
  68  27.03118
  69  177.6296
  70  238.1698
  71  194.4172
  72  110.6731
  73  7.120143
  74  26.19095
  75  80.9137
  76  35.00841
  77  -14.96353
  78  10.48322
  79  173.5603
  80  197.459
  81  186.6603
  82  119.4693
  83  -32.39102
  84  -48.44397
  85  -51.06351
  86  38.17507
  87  153.015
  88  246.1218
  89  159.9684
  90  96.79215
  91  120.9234
  92  172.2975
  93  134.9407
  94  144.5633
  95  108.4112
  96  140.3742
  97  139.2411
  98  307.4593
  99  328.5101
 100  313.6649
 101  277.4131
 102  294.752
 103  310.4107
 104  215.8271
 105  199.7103
 106  128.0868
 107  106.9071
 108  112.7477
 109  149.4575
 110  143.4753
 111  175.4969
 112  310.7581
 113  401.4279
 114  266.5373
 115  167.4039
 116  77.92751
 117  103.5038
 118  58.33856
 119  70.32085
 120  -38.78743
 121  -38.86781
 122  -5.404101
 123  122.0253
 124  195.5944
 125  229.1309
 126  223.8392
 127  181.3186
 128  124.8073
 129  72.12749
 130  32.0946
 131  83.58769
 132  75.66644
 133  81.47459
 134  123.213
 135  184.5051
 136  253.2644
 137  191.3517
 138  216.0508
 139  160.3494
 140  155.6394
 141  75.3658
 142  39.67621
 143  123.5452
 144  261.0066
 145  349.0089
 146  261.7156
 147  183.6713
 148  100.3171
 149  102.9405
 150  110.9052
 151  129.7698
 152  113.796
 153  164.7982
 154  115.3338
 155  94.92597
 156  -55.20123
 157  27.43738
 158  116.6702
 159  247.8585
 160  284.6849
 161  239.1781
 162  203.1069
 163  159.0792
 164  94.77256
 165  3.18691
 166  51.79776
 167  203.4084
 168  271.7289
 169  172.9537
 170  68.13545
 171  121.834
 172  130.4106
 173  151.1116
 174  122.7829
 175  223.9088
 176  267.5504
 177  361.0951
 178  338.4174
 179  306.3479
 180  219.6948
 181  96.26841
 182  34.37892
 183  27.65095
 184  84.48231
 185  160.4169
 186  250.2829
 187  211.4525
 188  127.7624
 189  30.74348
 190  35.25891
 191  -61.3055
 192  -16.18373
 193  47.38294
 194  138.1943
 195  59.8728
 196  -57.38571
 197  -138.502
 198  -83.25872
 199  62.61823
 200  134.8257
 201  41.46741
 202  -22.23357
 203  -34.00887
 204  12.07042
 205  13.66988
 206  18.87705
 207  56.05664
 208  174.5167
 209  248.5181
 210  254.1035
 211  127.3354
 212  78.16103
 213  61.49204
 214  171.9092
 215  226.3494
 216  222.1595
 217  143.948
 218  20.73354
 219  22.23483
 220  -66.04462
 221  -31.61765
 222  5.504807
 223  131.9816
 224  169.2291
 225  155.9788
 226  169.3598
 227  152.8043
 228  153.1466
 229  149.8794
 230  119.4337
 231  69.54816
 232  -44.43538
 233  -89.35487
 234  -134.8115
 235  25.84209
 236  85.33722
 237  69.22309
 238  55.50559
 239  74.19297
 240  214.6557
 241  68.61539
 242  116.6208
 243  56.70432
 244  104.3399
 245  100.7119
 246  83.06747
 247  115.8035
 248  151.3896
 249  224.6177
 250  287.3392
 251  242.295
 252  239.401
 253  130.2153
 254  109.0928
 255  153.2306
 256  230.9913
 257  117.3296
 258  -55.44087
 259  -45.03532
 260  152.6285
 261  191.1228
 262  132.6817
 263  156.218
 264  160.7426
 265  22.28526
 266  -101.6415
 267  -110.3592
 268  -53.78118
 269  -47.67822
 270  76.4371
 271  96.50007
 272  135.3056
 273  218.0596
 274  232.8319
 275  161.201
 276  123.588
 277  131.7874
 278  142.1069
 279  114.1842
 280  143.8017
 281  80.46605
 282  -109.943
 283  -146.772
 284  -44.15958
 285  88.58707
 286  0.921516
 287  33.04584
 288  64.54478
 289  105.0408
 290  40.93789
 291  -30.59335
 292  57.21592
 293  16.12172
 294  59.78127
 295  19.44269
 296  130.3566
 297  124.7283
 298  163.582
 299  80.79756
 300  170.2671
 301  188.4783
 302  202.0553
 303  142.8022
 304  35.60074
 305  80.53989
 306  142.5446
 307  190.425
 308  92.87254
 309  55.67464
 310  134.0941
 311  182.5864
 312  210.0147
 313  82.82716
 314  67.66961
 315  14.29068
 316  18.68624
 317  61.14572
 318  -55.17775
 319  -68.40256
 320  -101.205
 321  18.38105
 322  25.06562
 323  60.53412
 324  68.58774
 325  118.1051
 326  151.5
 327  184.6004
 328  195.1982
 329  206.0433
 330  244.7527
 331  223.8989
 332  220.1532
 333  244.2674
 334  136.1465
 335  10.46538
 336  -64.09519
 337  -15.59051
 338  71.41222
 339  -25.11087
 340  -77.66428
 341  -129.9549
 342  -28.0057
 343  30.8852
 344  155.4422
 345  246.8413
 346  224.2404
 347  85.97659
 348  96.55894
 349  212.3868
 350  174.5902
 351  94.47874
 352  86.10213
 353  198.8202
 354  216.8687
 355  149.4934
 356  168.6288
 357  190.8587
 358  365.2121
 359  310.8055
 360  338.7884
 361  232.2948
 362  358.4429
 363  267.2309
 364  310.658
 365  290.4356
 366  331.1745
 367  286.1644
 368  258.4552
 369  221.691
 370  212.1738
 371  120.5937
 372  37.20427
 373  -41.33603
 374  -94.57887
 375  -102.7123
 376  -5.978402
 377  223.1012
 378  303.0931
 379  331.1034
 380  277.5104
 381  214.5304
 382  241.7694
 383  70.63032
 384  90.82259
 385  45.33607
 386  123.1693
 387  198.4742
 388  236.7814
 389  177.058
 390  16.73499
 391  -25.94179
 392  38.92593
 393  31.44826
 394  59.325
 395  67.18207
 396  140.6477
 397  160.6943
 398  126.2868
 399  40.637
 400  -28.61174
 401  23.96803
 402  99.66742
 403  160.6091
 404  220.3672
 405  292.2062
 406  350.7299
 407  340.6348
 408  244.5532
 409  102.144
 410  -84.48526
 411  -12.41774
 412  17.62745
 413  96.50809
 414  40.04594
 415  130.1977
 416  269.5072
 417  247.3174
 418  73.95763
 419  -156.2596
 420  -137.0381
 421  -25.38312
 422  70.09051
 423  97.18929
 424  79.38815
 425  112.8325
 426  31.07803
 427  13.61322
 428  -120.6293
 429  -97.62554
 430  -120.91
 431  -21.46843
 432  -12.64423
 433  44.58624
 434  62.72254
 435  222.4241
 436  249.7579
 437  222.8296
 438  127.7173
 439  178.6972
 440  209.7471
 441  53.05017
 442  53.22778
 443  69.51834
 444  146.2611
 445  -38.34491
 446  -145.1306
 447  21.72025
 448  205.7363
 449  209.1536
 450  83.29636
 451  59.48356
 452  185.1825
 453  239.4576
 454  356.8822
 455  351.1657
 456  249.534
 457  136.5256
 458  164.8459
 459  256.2411
 460  319.9172
 461  275.6999
 462  292.8085
 463  230.8248
 464  136.6058
 465  17.95485
 466  -2.43306
 467  29.63939
 468  196.2675
 469  315.0266
 470  321.7258
 471  170.9064
 472  -37.02246
 473  -47.26726
 474  69.97997
 475  303.9655
 476  428.5237
 477  342.5035
 478  319.6158
 479  283.5435
 480  299.4333
 481  156.2931
 482  99.71319
 483  106.8928
 484  223.0378
 485  175.5864
 486  114.4713
 487  201.7233
 488  275.4994
 489  192.4011
 490  -54.45098
 491  -45.31528
 492  45.7082
 493  174.0717
 494  178.4894
 495  140.9712
 496  98.73785
 497  90.41077
 498  194.4968
 499  230.5766
 500  199.6792
 501  160.1901
 502  199.8856
 503  156.3611
 504  136.4809
 505  192.0507
 506  239.7722
 507  200.8268
 508  168.9154
 509  106.0146
 510  88.69097
 511  31.63211
 512  96.60148
 513  112.6413
 514  80.75459
 515  44.07552
 516  70.37382
 517  186.0825
 518  218.5634
 519  342.1887
 520  358.3038
 521  410.0496
 522  179.3428
 523  54.26247
 524  -28.96392
 525  102.0407
 526  205.5221
 527  198.9428
 528  168.6451
 529  139.199
 530  194.7294
 531  273.0672
 532  281.264
 533  254.8397
 534  250.4182
 535  234.7223
 536  208.0935
 537  125.7629
 538  169.8046
 539  183.3263
 540  184.061
 541  202.9087
 542  150.4238
 543  121.5952
 544  88.1975
 545  179.6354
 546  213.177
 547  206.376
 548  49.27086
 549  64.17684
 550  98.68989
 551  208.479
 552  160.4842
 553  183.5874
 554  131.8465
 555  55.10202
 556  -111.6933
 557  -98.32264
 558  54.05397
 559  269.8589
 560  357.9089
 561  264.5067
 562  259.5116
 563  225.8639
 564  312.1039
 565  253.0716
 566  211.7382
 567  172.7126
 568  40.42512
 569  -52.78933
 570  -56.92384
 571  87.78725
 572  180.6182
 573  224.7726
 574  176.7541
 575  38.4308
 576  -100.2322
 577  -25.5056
 578  122.8032
 579  295.9754
 580  232.0302
 581  253.72
 582  183.2884
 583  108.2366
 584  97.68768
 585  113.2021
 586  162.7425
 587  93.7806
 588  56.68673
 589  130.5409
 590  203.9734
 591  315.801
 592  356.8714
 593  358.2612
 594  287.2095
 595  224.004
 596  222.1553
 597  243.081
 598  220.0473
 599  150.3725
 600  112.8079
 601  124.497
 602  219.4954
 603  250.9466
 604  287.4958
 605  218.505
 606  262.9331
 607  332.264
 608  468.4178
 609  356.9628
 610  154.6274
 611  114.9538
 612  164.3912
 613  99.18534
 614  -8.399102
 615  103.0805
 616  321.0581
 617  310.3924
 618  182.0762
 619  143.3134
 620  177.9054
 621  358.6163
 622  349.3045
 623  277.1239
 624  40.31806
 625  8.179556
 626  103.4013
 627  188.2242
 628  289.1609
 629  274.4554
 630  304.9602
 631  255.4489
 632  291.1653
 633  313.318
 634  368.8033
 635  455.5161
 636  545.4657
 637  704.4578
 638  810.1365
 639  856.926
 640  850.9493
 641  1000.985
 642  1086.945
 643  1174.942
 644  1041.439
 645  837.6594
 646  601.7169
 647  415.272
 648  409.7338
 649  419.8043
 650  307.9301
 651  136.4162
 652  26.35281
 653  144.3821
 654  245.7772
 655  233.5815
 656  106.3055
 657  75.25085
 658  219.1302
 659  277.2431
 660  288.1999
 661  279.0864
 662  139.7553
 663  125.2807
 664  118.7393
 665  227.8085
 666  196.071
 667  162.4115
 668  155.8602
 669  119.6813
 670  83.6763
 671  123.7341
 672  222.0042
 673  281.6601
 674  203.8287
 675  136.4125
 676  106.7015
 677  160.067
 678  228.8281
 679  283.0168
 680  187.7264
 681  133.8824
 682  38.91104
 683  -16.33821
 684  -50.11863
 685  81.88485
 686  284.5168
 687  274.6628
 688  140.288
 689  65.75374
 690  144.2617
 691  172.2672
 692  236.4619
 693  240.6189
 694  272.3817
 695  231.9207
 696  227.2922
 697  246.8179
 698  297.2417
 699  203.4807
 700  220.556
 701  182.9281
 702  148.7415
 703  70.55605
 704  88.52174
 705  115.0894
 706  252.6824
 707  397.7479
 708  471.5562
 709  285.0695
 710  97.66691
 711  78.4362
 712  101.6391
 713  170.1449
 714  118.3735
 715  188.6099
 716  122.5728
 717  165.9254
 718  84.38477
 719  126.268
 720  144.2411
 721  222.3093
 722  206.612
 723  121.0986
 724  121.1201
 725  52.1095
 726  56.68679
 727  40.75608
 728  65.01151
 729  124.9936
 730  147.542
 731  115.8293
 732  6.470621
 733  89.08526
 734  175.5584
 735  206.0994
 736  192.3813
 737  239.5432
 738  258.6613
 739  149.0597
 740  140.8461
 741  118.4621
 742  176.5137
 743  295.8473
 744  389.5334
 745  431.1457
 746  261.5068
 747  213.5346
 748  167.3073
 749  144.6855
 750  134.6876
 751  178.4104
 752  173.2323
 753  175.8897
 754  178.3934
 755  285.2714
 756  323.3273
 757  326.1229
 758  197.7717
 759  93.79253
 760  -7.077491
 761  -55.83553
 762  -30.42449
 763  92.93174
 764  181.5066
 765  240.3032
 766  67.70284
 767  -75.68744
 768  -198.537
 769  -178.2578
 770  43.60233
 771  176.9495
 772  310.386
 773  245.6558
 774  230.8013
 775  179.5915
 776  246.0931
 777  237.4498
 778  235.8619
 779  238.1888
 780  147.0597
 781  158.3961
 782  199.1788
 783  361.4082
 784  463.7152
 785  350.6458
 786  135.4436
 787  44.02524
 788  79.21881
 789  272.2069
 790  237.2403
 791  287.064
 792  181.2058
 793  141.1331
 794  72.15395
 795  93.42889
 796  192.9567
 797  237.1067
 798  306.0854
 799  227.7223
 800  200.8936
 801  149.9179
 802  142.3495
 803  128.9111
 804  217.5936
 805  157.6696
 806  144.0906
 807  99.77168
 808  186.0661
 809  227.5561
 810  293.4099
 811  293.111
 812  291.3911
 813  166.5121
 814  221.264
 815  341.9388
 816  470.469
 817  432.2366
 818  323.5888
 819  279.5885
 820  273.6144
 821  294.7654
 822  273.4599
 823  244.6127
 824  152.8575
 825  101.1197
 826  194.7297
 827  336.3624
 828  331.2847
 829  262.3213
 830  264.4466
 831  360.7188
 832  267.616
 833  168.6239
 834  97.37609
 835  196.5165
 836  187.2454
 837  217.2161
 838  193.9543
 839  222.535
 840  162.4356
 841  94.40553
 842  156.4072
 843  155.4018
 844  154.1092
 845  150.7227
 846  155.8271
 847  71.46105
 848  20.13269
 849  81.76633
 850  191.1162
 851  183.5293
 852  161.3903
 853  188.7849
 854  295.3005
 855  386.0445
 856  368.748
 857  305.3362
 858  264.7594
 859  206.5166
 860  229.0926
 861  155.5357
 862  208.2206
 863  194.8015
 864  196.2903
 865  77.92683
 866  106.7955
 867  158.7646
 868  171.1018
 869  192.6497
 870  234.2603
 871  271.7125
 872  246.6694
 873  275.6788
 874  313.2285
 875  223.2252
 876  120.2854
 877  64.94758
 878  40.25789
 879  95.04206
 880  110.8729
 881  203.1198
 882  173.3021
 883  118.1787
 884  129.1487
 885  138.7796
 886  117.1465
 887  205.3818
 888  305.2243
 889  420.0837
 890  415.2659
 891  264.7148
 892  84.37553
 893  42.20889
 894  264.1303
 895  308.3015
 896  167.8204
 897  -56.05186
 898  -111.3133
 899  -8.130442
 900  83.39271
 901  138.0009
 902  99.9862
 903  99.12194
 904  113.5654
 905  134.5044
 906  73.8941
 907  45.91719
 908  108.6476
 909  244.0696
 910  217.9386
 911  10.43962
 912  -137.2549
 913  -193.9306
 914  -59.53951
 915  73.93321
 916  178.8616
 917  214.4935
 918  141.0743
 919  117.1411
 920  -21.85603
 921  109.3038
 922  168.884
 923  301.8757
 924  229.1757
 925  249.6622
 926  342.414
 927  362.6486
 928  229.3703
 929  186.0519
 930  185.2941
 931  235.3856
 932  236.5993
 933  282.0721
 934  227.8719
 935  81.75961
 936  74.45242
 937  89.78884
 938  52.43552
 939  23.97214
 940  120.0537
 941  163.333
 942  156.0012
 943  123.5195
 944  74.6345
 945  3.928784
 946  68.21541
 947  100.8298
 948  79.78619
 949  7.062105
 950  -21.82878
 951  38.43081
 952  115.3875
 953  280.0905
 954  323.9877
 955  340.4635
 956  285.7531
 957  199.6883
 958  111.7919
 959  -76.85243
 960  -89.37074
 961  -48.87164
 962  89.62473
 963  208.892
 964  238.1581
 965  216.7935
 966  129.7223
 967  131.8967
 968  263.9684
 969  345.2602
 970  266.7279
 971  89.77164
 972  17.51829
 973  99.28955
 974  159.3442
 975  103.3708
 976  100.4002
 977  225.5079
 978  318.1856
 979  195.6078
 980  111.1444
 981  78.70885
 982  159.5354
 983  125.3694
 984  137.383
 985  168.8952
 986  167.1163
 987  133.657
 988  55.34051
 989  207.6568
 990  342.4735
 991  422.3993
 992  340.8867
 993  222.4319
 994  186.1801
 995  193.5289
 996  197.1944
 997  258.3262
 998  204.603
 999  138.5407
1000  32.56343
1001  -2.391643
1002  104.3154
1003  185.1963
1004  131.173
1005  99.17506
1006  122.2572
1007  228.3308
1008  198.2906
1009  165.8586
1010  68.38722
1011  45.89138
1012  -13.2431
1013  14.36636
1014  -61.47939
1015  -46.08176
1016  36.88538
1017  165.5807
1018  212.7517
1019  102.9103
1020  81.09995
1021  150.295
1022  89.25523
1023  91.52763
