# Input file       =  1190777738.109756_cleaned.dat
# Candidate        =  PSR_0332+5434
# Telescope        =  AR
# Epoch_topo       =  58026.149966548102
# Epoch_bary       =  N/A
# T_sample         =  0.002
# Data Folded      =  7340032
# Data Avg         =  0.00986663961825098
# Data StdDev      =  1.00007722235275 
# Profile Bins     =  512
# Profile Avg      =  141.407512552036 
# Profile StdDev   =  119.742282443536 
# Reduced chi-sqr  =  1.366
# Prob(Noise)      <  6.58e-08   (~5.3 sigma)
# P_topo (ms)      =  714.472485345906  +/- 0.000222
# P'_topo (s/s)    =  -0                +/- 1.17e-10
# P''_topo (s/s^2) =  0                 +/- 5.18e-14
# P_bary (ms)      =  N/A
# P'_bary (s/s)    =  N/A
# P''_bary (s/s^2) =  N/A
# P_orb (s)        =  N/A
# asin(i)/c (s)    =  N/A
# eccentricity     =  N/A
# w (rad)          =  N/A
# T_peri           =  N/A
######################################################
   0  690.8123
   1  711.9456
   2  554.2241
   3  327.6926
   4  295.5238
   5  165.9176
   6  160.0292
   7  211.7939
   8  134.0609
   9  139.121
  10  227.6223
  11  226.989
  12  36.94332
  13  123.5257
  14  240.3579
  15  153.1386
  16  199.2497
  17  171.6921
  18  55.13433
  19  63.63864
  20  127.9334
  21  74.62527
  22  -3.968078
  23  64.33205
  24  107.4615
  25  75.63864
  26  66.46853
  27  27.40685
  28  21.54615
  29  156.1635
  30  77.76829
  31  -38.84529
  32  57.27053
  33  61.11054
  34  36.15688
  35  42.81048
  36  -5.195715
  37  50.51287
  38  13.61337
  39  74.78012
  40  75.03351
  41  113.7299
  42  71.83126
  43  101.9892
  44  117.619
  45  183.916
  46  228.8192
  47  49.20521
  48  57.02037
  49  81.0139
  50  176.5694
  51  165.1282
  52  199.5693
  53  260.8146
  54  135.1502
  55  290.2625
  56  289.0356
  57  148.215
  58  107.5283
  59  86.96718
  60  165.4519
  61  81.34361
  62  103.0385
  63  112.9998
  64  66.27546
  65  81.54762
  66  117.6947
  67  205.0004
  68  127.7434
  69  182.2884
  70  171.1163
  71  156.1882
  72  273.1842
  73  258.1163
  74  143.7053
  75  75.35895
  76  148.1425
  77  110.5861
  78  69.48799
  79  243.0363
  80  217.2337
  81  116.772
  82  154.4538
  83  145.6866
  84  186.8423
  85  235.8436
  86  303.1508
  87  205.0406
  88  206.2391
  89  224.3342
  90  176.8846
  91  142.5549
  92  6.989073
  93  255.5199
  94  423.8914
  95  227.48
  96  124.5198
  97  144.5816
  98  154.0417
  99  -16.81039
 100  -4.842584
 101  150.7884
 102  53.28331
 103  49.25131
 104  221.2501
 105  180.1604
 106  326.5114
 107  327.316
 108  191.9596
 109  213.9616
 110  40.25091
 111  213.3111
 112  171.1192
 113  158.7013
 114  360.2913
 115  223.0519
 116  151.9897
 117  173.2158
 118  203.3269
 119  177.6829
 120  43.47272
 121  54.38883
 122  274.322
 123  270.1401
 124  197.1814
 125  145.0664
 126  114.8108
 127  44.8511
 128  12.66402
 129  166.6593
 130  174.9579
 131  72.7262
 132  52.95714
 133  130.4396
 134  197.975
 135  52.07167
 136  123.8603
 137  215.3004
 138  253.7736
 139  374.9035
 140  128.5228
 141  34.63485
 142  10.00028
 143  40.25479
 144  191.9345
 145  145.9089
 146  97.75433
 147  216.8672
 148  240.1613
 149  175.375
 150  -60.25196
 151  -85.89505
 152  160.8083
 153  330.6631
 154  235.6231
 155  303.359
 156  184.8185
 157  135.924
 158  138.1147
 159  59.61959
 160  114.7694
 161  170.6617
 162  129.5715
 163  105.0871
 164  135.0179
 165  198.1836
 166  115.7574
 167  232.6841
 168  219.9441
 169  52.10848
 170  37.04814
 171  76.06289
 172  67.1508
 173  68.25642
 174  12.98371
 175  114.784
 176  99.72202
 177  74.85237
 178  27.39363
 179  108.6528
 180  199.8822
 181  37.57491
 182  48.45621
 183  146.7918
 184  150.4775
 185  71.0051
 186  98.29749
 187  41.50404
 188  81.35419
 189  12.90967
 190  12.20924
 191  60.29197
 192  187.4421
 193  160.0861
 194  102.9734
 195  194.5297
 196  129.2589
 197  183.5299
 198  266.5473
 199  259.8981
 200  110.3034
 201  36.18298
 202  139.8528
 203  126.307
 204  153.2647
 205  204.7359
 206  79.14239
 207  86.07797
 208  64.16572
 209  101.4714
 210  118.1425
 211  135.9878
 212  98.56229
 213  85.11947
 214  101.2933
 215  260.5828
 216  217.8781
 217  88.10418
 218  114.1821
 219  107.0126
 220  177.8438
 221  258.6732
 222  215.4758
 223  130.9555
 224  70.49801
 225  131.7706
 226  76.54147
 227  -28.59942
 228  125.5702
 229  225.6732
 230  166.1948
 231  85.20705
 232  -24.9745
 233  17.62129
 234  65.84863
 235  124.3745
 236  96.42425
 237  29.66888
 238  35.30175
 239  -87.8429
 240  -8.196424
 241  69.06195
 242  204.5985
 243  294.7652
 244  98.75511
 245  20.18225
 246  85.60918
 247  195.7886
 248  171.7921
 249  150.4197
 250  261.5273
 251  212.5378
 252  285.8369
 253  172.5502
 254  271.555
 255  222.5993
 256  16.42048
 257  122.8678
 258  204.199
 259  178.8348
 260  155.8212
 261  174.5804
 262  187.0926
 263  202.0004
 264  95.57343
 265  209.258
 266  176.5615
 267  159.2317
 268  120.5759
 269  267.4732
 270  210.8934
 271  251.3577
 272  194.7176
 273  16.32954
 274  -48.71072
 275  -66.70293
 276  40.7093
 277  45.00699
 278  113.9379
 279  129.6874
 280  70.25738
 281  76.3176
 282  146.7103
 283  137.3452
 284  160.984
 285  233.7619
 286  239.818
 287  63.50786
 288  -19.04357
 289  -25.41498
 290  -3.467936
 291  63.95084
 292  60.94327
 293  -36.88385
 294  116.5236
 295  55.12529
 296  2.6287
 297  41.06761
 298  23.69721
 299  -36.4786
 300  32.03112
 301  85.52367
 302  26.71764
 303  146.0793
 304  71.41074
 305  121.466
 306  137.754
 307  163.791
 308  155.3651
 309  140.8069
 310  209.9959
 311  196.5838
 312  138.5724
 313  139.1208
 314  162.5929
 315  -32.48249
 316  19.11983
 317  108.1184
 318  281.8025
 319  266.9456
 320  114.5433
 321  107.1692
 322  197.1773
 323  267.5239
 324  344.7408
 325  200.5897
 326  191.1666
 327  141.9862
 328  55.28058
 329  42.14706
 330  87.60783
 331  9.004221
 332  116.9004
 333  125.4466
 334  8.615585
 335  57.82064
 336  68.65843
 337  73.86398
 338  98.95388
 339  101.9581
 340  245.0224
 341  206.9736
 342  -8.295073
 343  117.6044
 344  108.4185
 345  45.89729
 346  124.5178
 347  149.1406
 348  177.4387
 349  58.80581
 350  63.00553
 351  164.8981
 352  177.9756
 353  130.2758
 354  234.3175
 355  99.31518
 356  120.798
 357  197.1356
 358  119.3053
 359  148.6921
 360  142.2484
 361  54.94805
 362  102.2224
 363  42.22067
 364  71.35888
 365  205.5264
 366  82.15675
 367  65.67304
 368  228.5845
 369  160.325
 370  44.28974
 371  84.46084
 372  101.6799
 373  244.5145
 374  215.4949
 375  106.9909
 376  165.1782
 377  344.721
 378  293.4258
 379  117.4205
 380  76.34324
 381  309.2987
 382  330.2471
 383  199.7077
 384  234.321
 385  224.8561
 386  178.3734
 387  175.2799
 388  157.9771
 389  136.4501
 390  100.422
 391  201.5905
 392  128.8258
 393  104.7905
 394  201.1845
 395  276.7098
 396  91.42025
 397  131.5639
 398  154.1846
 399  40.70064
 400  95.44397
 401  171.2402
 402  136.0863
 403  177.6892
 404  22.81772
 405  133.2742
 406  265.8554
 407  130.6076
 408  31.1338
 409  58.17064
 410  235.5309
 411  190.0157
 412  228.6676
 413  160.3666
 414  140.207
 415  152.7592
 416  114.8641
 417  -13.48212
 418  2.698184
 419  211.8
 420  168.2647
 421  29.0267
 422  162.504
 423  91.8178
 424  143.4446
 425  131.3842
 426  154.9925
 427  185.8737
 428  109.2032
 429  70.51328
 430  148.8248
 431  217.9195
 432  123.6956
 433  318.5499
 434  230.1003
 435  193.894
 436  99.8214
 437  120.7555
 438  -15.36159
 439  -79.42867
 440  167.6412
 441  287.4122
 442  327.172
 443  129.516
 444  23.52738
 445  85.28921
 446  77.00622
 447  123.3651
 448  55.98082
 449  135.6764
 450  56.94666
 451  78.73436
 452  137.0391
 453  19.44817
 454  190.2278
 455  150.1349
 456  212.4722
 457  100.8843
 458  34.73932
 459  127.9142
 460  30.57652
 461  92.05916
 462  246.0224
 463  139.6451
 464  131.47
 465  90.24304
 466  131.975
 467  185.4715
 468  197.2386
 469  226.9571
 470  311.6467
 471  208.2024
 472  234.2075
 473  192.8438
 474  165.1872
 475  178.8036
 476  199.8481
 477  178.3383
 478  -51.6572
 479  88.10099
 480  71.96752
 481  142.4272
 482  226.5071
 483  271.044
 484  115.5203
 485  136.6696
 486  115.0218
 487  115.1772
 488  179.8666
 489  127.9802
 490  64.41583
 491  234.5815
 492  238.294
 493  227.5231
 494  217.1496
 495  143.8728
 496  84.18312
 497  85.66335
 498  73.73621
 499  118.8858
 500  141.0371
 501  72.29039
 502  132.4349
 503  118.1766
 504  170.0329
 505  120.0919
 506  136.9199
 507  288.6641
 508  521.5368
 509  577.0083
 510  644.5092
 511  698.1774
