# Input file       =  1190777738.109756_cleaned.dat
# Candidate        =  PSR_0332+5434
# Telescope        =  AR
# Epoch_topo       =  58026.149966548102
# Epoch_bary       =  N/A
# T_sample         =  0.002
# Data Folded      =  7340032
# Data Avg         =  0.0342849414332055
# Data StdDev      =  3.0177436802083  
# Profile Bins     =  1024
# Profile Avg      =  245.713616653258 
# Profile StdDev   =  255.494377547776 
# Reduced chi-sqr  =  1.234
# Prob(Noise)      <  3.9e-07   (~4.9 sigma)
# P_topo (ms)      =  714.472486353979  +/- 0.000199
# P'_topo (s/s)    =  -0                +/- 1.05e-10
# P''_topo (s/s^2) =  0                 +/- 4.64e-14
# P_bary (ms)      =  N/A
# P'_bary (s/s)    =  N/A
# P''_bary (s/s^2) =  N/A
# P_orb (s)        =  N/A
# asin(i)/c (s)    =  N/A
# eccentricity     =  N/A
# w (rad)          =  N/A
# T_peri           =  N/A
######################################################
   0  295.0656
   1  282.9734
   2  328.8012
   3  212.1339
   4  196.8072
   5  214.3464
   6  317.0559
   7  366.3429
   8  275.9025
   9  216.9579
  10  245.3895
  11  327.5404
  12  409.0474
  13  446.0704
  14  490.8112
  15  423.2851
  16  365.3903
  17  143.6865
  18  71.66272
  19  69.21568
  20  212.8557
  21  265.0125
  22  245.9434
  23  182.1886
  24  224.6978
  25  305.2953
  26  381.613
  27  357.2042
  28  209.2818
  29  129.7145
  30  130.0199
  31  227.1383
  32  111.1744
  33  163.1224
  34  113.5047
  35  216.9993
  36  184.6227
  37  248.3295
  38  224.571
  39  246.2163
  40  143.8864
  41  208.9793
  42  132.4644
  43  182.9195
  44  85.67913
  45  190.7438
  46  328.9219
  47  414.7157
  48  371.5552
  49  297.6202
  50  167.4178
  51  130.5767
  52  107.9772
  53  218.3957
  54  235.9522
  55  229.8682
  56  241.5089
  57  336.9102
  58  424.9899
  59  434.8947
  60  394.8982
  61  354.0642
  62  306.2876
  63  175.3225
  64  144.7782
  65  169.0843
  66  226.3218
  67  180.4521
  68  182.4485
  69  105.4436
  70  58.56862
  71  -27.94161
  72  102.0723
  73  275.5799
  74  364.2504
  75  371.7333
  76  347.4745
  77  303.3277
  78  237.0303
  79  134.2006
  80  55.7753
  81  -27.19327
  82  45.7982
  83  53.73132
  84  127.9316
  85  133.9065
  86  200.5887
  87  267.4598
  88  257.5318
  89  215.0366
  90  49.12876
  91  136.5747
  92  186.4883
  93  83.9735
  94  -73.45404
  95  -122.9724
  96  -15.21643
  97  33.47945
  98  108.0704
  99  182.4273
 100  222.381
 101  396.9233
 102  423.9464
 103  502.8392
 104  337.0476
 105  161.8451
 106  56.17181
 107  129.519
 108  114.6485
 109  192.1223
 110  215.0333
 111  382.4587
 112  368.9779
 113  290.197
 114  223.9884
 115  311.2505
 116  438.2442
 117  463.4457
 118  370.3191
 119  370.4354
 120  393.709
 121  561.1284
 122  384.2886
 123  328.9758
 124  302.7807
 125  492.3307
 126  474.2339
 127  342.6105
 128  183.4555
 129  21.03799
 130  73.14376
 131  192.6387
 132  309.7186
 133  360.0838
 134  341.7176
 135  315.7977
 136  227.0052
 137  274.7533
 138  262.9706
 139  326.6338
 140  287.7104
 141  338.5134
 142  407.2011
 143  367.642
 144  237.3815
 145  141.0264
 146  277.4052
 147  372.8207
 148  354.7409
 149  283.0186
 150  374.862
 151  230.3965
 152  199.1167
 153  204.397
 154  363.8202
 155  480.9588
 156  343.6969
 157  344.0298
 158  320.5358
 159  498.0386
 160  421.942
 161  282.5082
 162  154.6345
 163  44.27713
 164  47.29193
 165  -72.87663
 166  -74.84818
 167  -76.7433
 168  71.99331
 169  86.58557
 170  135.4578
 171  62.22495
 172  207.5755
 173  167.5535
 174  268.8075
 175  219.3961
 176  199.0966
 177  132.6202
 178  76.19243
 179  177.1988
 180  233.681
 181  257.0803
 182  228.0539
 183  189.7833
 184  211.425
 185  280.1973
 186  373.4706
 187  402.1717
 188  438.599
 189  401.2352
 190  255.4056
 191  55.92361
 192  3.709078
 193  6.215924
 194  14.69562
 195  -16.59461
 196  32.73779
 197  12.50206
 198  0.09952002
 199  194.3782
 200  201.3872
 201  113.8322
 202  -77.32593
 203  13.06865
 204  131.823
 205  186.7284
 206  188.8025
 207  57.26424
 208  -13.52442
 209  63.68681
 210  83.64087
 211  72.78117
 212  60.92491
 213  66.29535
 214  16.12723
 215  -70.61406
 216  -14.7147
 217  -13.87844
 218  136.2249
 219  109.658
 220  109.5558
 221  17.26854
 222  210.0904
 223  256.6295
 224  188.8848
 225  118.3831
 226  171.2633
 227  257.0056
 228  277.0433
 229  187.2327
 230  199.4721
 231  265.4566
 232  305.0833
 233  214.5721
 234  191.4468
 235  209.191
 236  388.5706
 237  318.4984
 238  382.0976
 239  323.0835
 240  310.3709
 241  214.2663
 242  130.0015
 243  239.0553
 244  377.6094
 245  209.211
 246  7.34327
 247  -62.52578
 248  14.85782
 249  31.663
 250  83.28149
 251  205.0088
 252  361.442
 253  440.6819
 254  446.6045
 255  437.9172
 256  281.5796
 257  152.9711
 258  66.17916
 259  142.9843
 260  219.7539
 261  271.8769
 262  351.186
 263  414.2999
 264  515.5054
 265  514.6494
 266  404.6352
 267  285.6549
 268  312.1669
 269  330.1724
 270  326.8374
 271  215.8603
 272  171.7272
 273  60.58826
 274  86.20266
 275  75.27866
 276  140.29
 277  130.1472
 278  -2.346599
 279  -11.09014
 280  74.47507
 281  218.7554
 282  304.6018
 283  202.4049
 284  32.9225
 285  68.26415
 286  95.2472
 287  69.79182
 288  34.1573
 289  109.5482
 290  199.7348
 291  139.8833
 292  133.8253
 293  186.9848
 294  173.0194
 295  133.8724
 296  223.3574
 297  465.8787
 298  484.6445
 299  324.3086
 300  58.34964
 301  -19.27927
 302  82.19452
 303  267.9461
 304  297.9312
 305  219.8952
 306  81.82312
 307  134.6307
 308  174.5654
 309  224.2082
 310  222.2433
 311  253.7777
 312  348.1386
 313  274.0751
 314  101.1243
 315  101.9698
 316  31.33595
 317  132.1115
 318  147.0629
 319  282.2624
 320  287.0444
 321  298.5535
 322  234.0714
 323  271.8499
 324  325.2788
 325  424.6427
 326  236.1221
 327  134.8641
 328  104.8352
 329  220.2392
 330  357.7478
 331  371.247
 332  304.9244
 333  242.6114
 334  298.6144
 335  305.6053
 336  254.8328
 337  291.0452
 338  186.5737
 339  77.3795
 340  125.4431
 341  256.326
 342  176.7393
 343  4.435966
 344  6.941375
 345  194.9985
 346  337.42
 347  333.2744
 348  272.6552
 349  139.7614
 350  118.2482
 351  141.2219
 352  346.8352
 353  358.4977
 354  353.4776
 355  230.4658
 356  148.0676
 357  78.15955
 358  66.72855
 359  174.6161
 360  158.6459
 361  196.2884
 362  254.5152
 363  454.8511
 364  452.4259
 365  295.8342
 366  187.4462
 367  218.3511
 368  242.7382
 369  316.6309
 370  515.8073
 371  594.9963
 372  531.6478
 373  443.6703
 374  345.9109
 375  165.9669
 376  97.66637
 377  175.004
 378  352.9032
 379  548.5904
 380  589.9521
 381  543.5228
 382  344.3488
 383  346.8705
 384  386.0522
 385  401.6937
 386  409.9237
 387  379.4554
 388  364.965
 389  217.7193
 390  236.4322
 391  278.5007
 392  328.5959
 393  265.6434
 394  248.4205
 395  265.0387
 396  215.0246
 397  179.3001
 398  252.9429
 399  356.9198
 400  378.115
 401  195.6635
 402  186.8537
 403  159.0663
 404  273.7126
 405  345.9685
 406  428.0992
 407  450.2151
 408  303.6135
 409  100.0297
 410  120.012
 411  276.6769
 412  337.4435
 413  275.2808
 414  178.868
 415  88.41498
 416  107.3578
 417  142.0663
 418  272.4751
 419  197.0237
 420  197.2411
 421  219.2306
 422  308.996
 423  283.2273
 424  72.52834
 425  35.58361
 426  58.88316
 427  311.9988
 428  391.0326
 429  454.1346
 430  298.338
 431  219.2355
 432  103.3001
 433  81.608
 434  35.88234
 435  176.5537
 436  312.5078
 437  367.9278
 438  300.6489
 439  319.9354
 440  379.0611
 441  355.3758
 442  258.3187
 443  206.5527
 444  188.4947
 445  213.2032
 446  275.8339
 447  218.587
 448  182.0514
 449  174.1448
 450  102.0489
 451  -35.87325
 452  -87.87641
 453  79.51077
 454  276.1174
 455  369.9238
 456  381.2095
 457  257.3763
 458  67.08557
 459  37.5844
 460  195.2894
 461  284.9744
 462  227.8475
 463  164.2613
 464  150.0704
 465  265.218
 466  217.1683
 467  227.942
 468  244.2465
 469  305.0381
 470  304.4086
 471  359.9608
 472  295.3479
 473  202.4151
 474  99.12835
 475  167.0833
 476  123.5166
 477  260.2983
 478  359.7963
 479  341.9647
 480  174.2995
 481  221.8598
 482  494.4868
 483  525.785
 484  432.405
 485  362.0699
 486  373.2336
 487  292.9723
 488  180.155
 489  177.935
 490  204.3536
 491  169.735
 492  23.26963
 493  -71.33171
 494  -155.0623
 495  -90.5843
 496  165.4542
 497  328.4835
 498  479.9751
 499  511.4442
 500  579.0394
 501  527.9872
 502  282.3621
 503  218.4001
 504  64.25529
 505  71.379
 506  83.63504
 507  163.9149
 508  131.2889
 509  114.4287
 510  152.4169
 511  219.3936
 512  82.06224
 513  98.05412
 514  222.0879
 515  190.9689
 516  138.068
 517  35.52899
 518  101.6792
 519  110.9584
 520  248.671
 521  210.8912
 522  90.5054
 523  12.67208
 524  173.4375
 525  383.637
 526  354.1272
 527  264.5552
 528  285.9447
 529  433.8043
 530  269.202
 531  163.2897
 532  39.09
 533  71.98061
 534  150.1168
 535  250.1631
 536  185.5029
 537  61.18287
 538  22.3888
 539  217.0103
 540  353.7194
 541  424.6507
 542  282.3668
 543  222.1619
 544  270.6244
 545  210.5384
 546  183.0896
 547  177.2266
 548  215.2849
 549  260.3702
 550  277.3638
 551  350.6228
 552  340.3732
 553  377.5066
 554  310.3398
 555  445.5914
 556  500.7127
 557  523.9424
 558  362.8513
 559  329.3109
 560  370.4097
 561  434.7134
 562  370.8275
 563  357.1757
 564  239.8813
 565  268.7242
 566  279.5892
 567  339.2033
 568  369.2615
 569  351.4093
 570  408.6496
 571  271.7082
 572  72.1216
 573  -66.45378
 574  64.92503
 575  261.965
 576  270.0715
 577  155.9755
 578  224.8463
 579  322.8396
 580  308.6431
 581  399.9937
 582  411.0952
 583  431.9383
 584  254.1881
 585  209.2132
 586  231.0879
 587  236.599
 588  257.9443
 589  137.5061
 590  191.7046
 591  171.8105
 592  240.1353
 593  311.5521
 594  272.7924
 595  206.2943
 596  54.50449
 597  130.055
 598  294.7748
 599  413.0981
 600  378.1824
 601  354.8276
 602  316.0118
 603  373.7775
 604  391.2355
 605  366.3135
 606  264.8817
 607  216.2734
 608  127.3161
 609  130.2197
 610  159.4585
 611  125.6926
 612  137.6274
 613  108.0501
 614  232.5686
 615  209.8882
 616  294.4388
 617  259.9614
 618  224.8536
 619  131.9857
 620  190.3363
 621  255.5741
 622  191.6017
 623  176.0963
 624  252.2052
 625  200.4313
 626  240.7167
 627  143.8029
 628  239.6195
 629  214.5307
 630  361.9717
 631  474.697
 632  663.863
 633  855.2892
 634  872.4754
 635  821.866
 636  896.355
 637  946.8737
 638  1035.625
 639  958.651
 640  983.3801
 641  1010.114
 642  1088.683
 643  1080.686
 644  961.4204
 645  761.2983
 646  567.4276
 647  452.7922
 648  387.3031
 649  461.3184
 650  339.268
 651  250.0437
 652  205.9937
 653  306.524
 654  362.1147
 655  291.562
 656  256.6812
 657  179.5101
 658  177.8803
 659  229.6105
 660  307.6147
 661  337.4494
 662  348.9017
 663  305.7128
 664  128.5249
 665  46.6096
 666  77.40988
 667  291.492
 668  407.7793
 669  358.9285
 670  257.6978
 671  208.0672
 672  293.0201
 673  323.7858
 674  284.0244
 675  266.1334
 676  184.2116
 677  126.5503
 678  31.53955
 679  138.6729
 680  146.7063
 681  249.6604
 682  167.8517
 683  163.4508
 684  30.12434
 685  70.67466
 686  164.4936
 687  128.498
 688  154.0976
 689  140.3671
 690  144.4518
 691  102.3403
 692  95.45977
 693  145.8157
 694  145.1582
 695  107.0039
 696  64.83905
 697  53.15521
 698  169.6503
 699  283.8015
 700  276.3878
 701  135.7778
 702  -21.56376
 703  21.89522
 704  54.03899
 705  75.49872
 706  71.1897
 707  81.49017
 708  60.37043
 709  93.37814
 710  165.5346
 711  97.26103
 712  83.31705
 713  5.863228
 714  133.6218
 715  138.3848
 716  142.1723
 717  47.18702
 718  36.84719
 719  87.2021
 720  122.2796
 721  83.34511
 722  145.1833
 723  219.8755
 724  191.1656
 725  145.1674
 726  136.4805
 727  260.8803
 728  209.0715
 729  218.9305
 730  205.2644
 731  368.537
 732  351.3438
 733  389.8773
 734  148.5241
 735  89.729
 736  24.19731
 737  157.4297
 738  151.1665
 739  139.9241
 740  254.9376
 741  311.6921
 742  309.4765
 743  226.4935
 744  275.9112
 745  326.2432
 746  452.8602
 747  402.2476
 748  306.9392
 749  221.2299
 750  302.1651
 751  561.6199
 752  588.5851
 753  447.705
 754  313.3039
 755  258.3589
 756  260.6835
 757  191.8829
 758  149.5237
 759  242.5012
 760  287.7261
 761  343.3429
 762  204.3323
 763  139.3506
 764  209.483
 765  195.1451
 766  260.7157
 767  223.0006
 768  126.985
 769  145.5159
 770  168.2599
 771  211.8636
 772  135.7271
 773  214.9973
 774  356.3075
 775  298.2391
 776  290.0679
 777  186.7614
 778  286.9285
 779  290.1855
 780  324.3259
 781  256.2426
 782  184.0207
 783  327.0214
 784  396.4642
 785  549.7586
 786  481.5954
 787  445.4503
 788  368.7858
 789  223.5017
 790  154.5667
 791  118.0398
 792  284.0224
 793  350.1136
 794  318.3052
 795  216.1948
 796  149.8253
 797  156.1089
 798  266.8752
 799  429.8247
 800  521.4133
 801  337.3625
 802  222.2983
 803  212.7494
 804  287.9009
 805  240.5245
 806  217.5963
 807  249.5225
 808  326.8581
 809  366.6946
 810  318.2086
 811  479.4267
 812  526.8624
 813  529.306
 814  457.3359
 815  342.1738
 816  335.6773
 817  401.024
 818  368.5482
 819  371.2585
 820  283.2271
 821  316.1297
 822  304.7412
 823  270.4295
 824  108.7975
 825  134.5464
 826  280.2246
 827  512.0386
 828  635.4616
 829  745.9654
 830  577.7411
 831  309.4105
 832  172.7882
 833  248.6533
 834  191.2044
 835  256.6985
 836  287.4985
 837  282.8424
 838  114.1077
 839  7.087918
 840  7.601745
 841  85.20094
 842  222.5093
 843  350.7041
 844  221.3029
 845  110.2403
 846  27.76761
 847  182.5398
 848  295.1964
 849  447.213
 850  377.8895
 851  343.1889
 852  438.0327
 853  560.6439
 854  665.1233
 855  456.291
 856  366.646
 857  404.8248
 858  484.7679
 859  363.5867
 860  126.3015
 861  120.4618
 862  277.121
 863  390.7789
 864  357.6404
 865  292.1209
 866  255.1635
 867  262.9179
 868  486.8574
 869  576.8199
 870  534.5402
 871  359.4295
 872  284.8349
 873  302.6703
 874  283.2345
 875  330.3693
 876  310.8349
 877  368.8774
 878  312.356
 879  301.26
 880  150.5315
 881  106.6303
 882  68.46228
 883  150.5422
 884  348.7842
 885  526.2522
 886  501.9331
 887  426.175
 888  387.2489
 889  359.5647
 890  311.8177
 891  291.9112
 892  245.1036
 893  193.5909
 894  142.5336
 895  91.97132
 896  31.94029
 897  81.3811
 898  275.5886
 899  271.4436
 900  349.1365
 901  258.86
 902  185.9589
 903  117.8619
 904  74.05985
 905  106.7616
 906  102.3316
 907  265.8781
 908  349.9479
 909  303.1998
 910  125.5383
 911  104.1859
 912  120.5493
 913  267.2552
 914  367.8941
 915  338.1354
 916  388.2193
 917  449.2286
 918  645.8467
 919  597.3653
 920  396.0596
 921  180.0574
 922  77.12489
 923  106.7214
 924  115.6892
 925  14.73865
 926  41.43285
 927  104.5882
 928  312.3873
 929  324.5894
 930  336.6458
 931  234.8026
 932  153.9112
 933  177.2376
 934  258.8694
 935  425.4035
 936  362.3253
 937  416.1716
 938  417.0769
 939  290.6863
 940  53.54915
 941  -41.64949
 942  -80.24192
 943  -77.49877
 944  64.83647
 945  355.5937
 946  561.5484
 947  496.9554
 948  363.5689
 949  349.7395
 950  412.8051
 951  491.3582
 952  395.2196
 953  256.1404
 954  193.4628
 955  262.27
 956  290.7464
 957  269.3268
 958  173.5916
 959  149.0427
 960  136.2871
 961  238.0833
 962  283.0464
 963  310.5227
 964  258.1558
 965  261.0591
 966  208.6502
 967  201.0064
 968  188.28
 969  254.3672
 970  357.4348
 971  358.7321
 972  262.124
 973  205.2653
 974  298.4467
 975  481.9997
 976  466.4704
 977  383.2307
 978  180.5303
 979  106.4515
 980  55.83274
 981  93.55248
 982  142.9448
 983  166.7499
 984  107.0668
 985  161.3791
 986  152.244
 987  196.3425
 988  91.03092
 989  131.6688
 990  101.5746
 991  316.836
 992  251.5872
 993  240.5994
 994  144.5835
 995  238.1931
 996  258.8996
 997  69.36356
 998  57.75104
 999  223.6761
1000  419.2834
1001  337.2515
1002  219.4073
1003  111.4089
1004  130.7325
1005  95.33807
1006  187.3993
1007  332.6483
1008  370.0813
1009  281.7106
1010  172.1981
1011  177.078
1012  184.281
1013  168.395
1014  97.22635
1015  91.11452
1016  122.9017
1017  164.8067
1018  89.60342
1019  59.17588
1020  41.66576
1021  81.86368
1022  136.0134
1023  120.7119
