# Input file       =  1192500920.129434_cleaned.dat
# Candidate        =  PSR_0332+5434
# Telescope        =  AR
# Epoch_topo       =  58046.094202886969
# Epoch_bary       =  N/A
# T_sample         =  0.002
# Data Folded      =  7340032
# Data Avg         =  0.04006338453993 
# Data StdDev      =  2.9510707253143  
# Profile Bins     =  512
# Profile Avg      =  574.449809055876 
# Profile StdDev   =  353.340658504467 
# Reduced chi-sqr  =  1.563
# Prob(Noise)      <  5.35e-15   (~7.7 sigma)
# P_topo (ms)      =  714.485789120222  +/- 0.000346
# P'_topo (s/s)    =  -0                +/- 1.83e-10
# P''_topo (s/s^2) =  0                 +/- 8.06e-14
# P_bary (ms)      =  N/A
# P'_bary (s/s)    =  N/A
# P''_bary (s/s^2) =  N/A
# P_orb (s)        =  N/A
# asin(i)/c (s)    =  N/A
# eccentricity     =  N/A
# w (rad)          =  N/A
# T_peri           =  N/A
######################################################
   0  517.981
   1  796.6219
   2  673.1354
   3  146.5223
   4  324.1391
   5  433.8598
   6  406.6741
   7  157.7085
   8  19.90809
   9  173.8992
  10  283.039
  11  767.5217
  12  1069.544
  13  840.2225
  14  277.6991
  15  434.8541
  16  620.0449
  17  446.381
  18  469.273
  19  284.1785
  20  795.4214
  21  323.2627
  22  142.298
  23  341.2339
  24  135.5341
  25  124.9578
  26  75.59361
  27  522.699
  28  491.7436
  29  131.0295
  30  58.51796
  31  123.6305
  32  685.5934
  33  598.924
  34  242.24
  35  750.0012
  36  438.6736
  37  55.89059
  38  -62.23281
  39  85.73208
  40  192.2782
  41  266.6157
  42  498.6223
  43  598.0082
  44  784.0425
  45  614.8672
  46  405.0758
  47  450.4659
  48  566.9272
  49  646.7042
  50  740.5025
  51  539.8883
  52  625.6926
  53  803.3098
  54  466.6906
  55  156.1635
  56  458.893
  57  349.7173
  58  101.1788
  59  497.7109
  60  437.5771
  61  251.6935
  62  539.2901
  63  667.6354
  64  258.1805
  65  229.2603
  66  264.8353
  67  479.8631
  68  662.9431
  69  186.681
  70  51.28136
  71  250.2613
  72  489.4028
  73  565.0408
  74  495.101
  75  615.251
  76  672.1427
  77  674.2454
  78  1054.818
  79  466.8749
  80  651.344
  81  836.9984
  82  633.386
  83  617.6267
  84  756.7681
  85  920.7466
  86  738.7364
  87  806.9297
  88  769.1722
  89  297.126
  90  721.4155
  91  819.4655
  92  963.3588
  93  845.2381
  94  1011.181
  95  840.8732
  96  657.8331
  97  748.3647
  98  635.0648
  99  810.2578
 100  545.7143
 101  661.6266
 102  862.1274
 103  349.9734
 104  426.1389
 105  273.8397
 106  131.2717
 107  178.1533
 108  193.2854
 109  486.5975
 110  698.2911
 111  869.7078
 112  603.1176
 113  422.2608
 114  494.483
 115  813.536
 116  750.6358
 117  620.6796
 118  553.4875
 119  803.3793
 120  252.8802
 121  399.5637
 122  543.433
 123  885.2635
 124  669.8728
 125  827.2335
 126  731.1702
 127  261.3388
 128  399.7444
 129  642.3981
 130  1123.386
 131  819.8077
 132  628.5511
 133  742.1727
 134  465.9035
 135  557.1305
 136  642.3059
 137  478.8313
 138  839.9454
 139  871.442
 140  831.1297
 141  599.7881
 142  626.9201
 143  581.8903
 144  691.3762
 145  496.8405
 146  339.4717
 147  587.866
 148  469.8316
 149  518.2128
 150  426.6158
 151  368.294
 152  337.9131
 153  284.6701
 154  454.4419
 155  682.7965
 156  839.1593
 157  514.6685
 158  453.5326
 159  721.2549
 160  792.0892
 161  689.9462
 162  599.5017
 163  611.5798
 164  756.9064
 165  370.8145
 166  654.3896
 167  916.5487
 168  813.2762
 169  572.5
 170  751.3445
 171  797.2708
 172  739.0758
 173  804.4643
 174  750.8169
 175  458.6948
 176  366.7409
 177  805.8707
 178  962.2837
 179  154.5484
 180  259.0757
 181  295.8705
 182  -62.00254
 183  494.5764
 184  771.2626
 185  715.1028
 186  786.1638
 187  409.5122
 188  488.6703
 189  282.8918
 190  257.205
 191  144.9461
 192  521.5724
 193  753.6601
 194  858.1244
 195  917.7802
 196  1043.535
 197  1106.317
 198  1050.208
 199  1037.288
 200  482.382
 201  501.0944
 202  727.1351
 203  458.3279
 204  479.7552
 205  775.2061
 206  602.8033
 207  366.0599
 208  338.2884
 209  590.9305
 210  784.8816
 211  856.5231
 212  857.5921
 213  296.007
 214  543.1924
 215  582.047
 216  266.6147
 217  353.9566
 218  267.1056
 219  774.3127
 220  469.4844
 221  332.1985
 222  603.9475
 223  914.3442
 224  717.9208
 225  586.5417
 226  738.0933
 227  669.4375
 228  848.7049
 229  784.517
 230  469.1983
 231  334.7421
 232  322.6943
 233  636.1407
 234  567.2182
 235  348.7459
 236  389.7466
 237  168.681
 238  533.4114
 239  668.2505
 240  751.1718
 241  606.6238
 242  606.2124
 243  632.2669
 244  773.4092
 245  674.7704
 246  346.9771
 247  620.4014
 248  645.9186
 249  406.3659
 250  103.5076
 251  218.0583
 252  392.9398
 253  425.2795
 254  386.9923
 255  526.7691
 256  264.7255
 257  296.4702
 258  387.943
 259  718.5139
 260  152.0568
 261  9.660426
 262  150.59
 263  82.36485
 264  274.3705
 265  335.8783
 266  849.9739
 267  714.2504
 268  778.739
 269  508.4768
 270  167.4045
 271  103.4593
 272  109.7629
 273  502.019
 274  471.6956
 275  302.2542
 276  331.0435
 277  547.3637
 278  615.0126
 279  349.5306
 280  266.4533
 281  302.5059
 282  649.5045
 283  574.2572
 284  320.9498
 285  455.6058
 286  757.5412
 287  755.3601
 288  431.7453
 289  420.2779
 290  61.20868
 291  451.7632
 292  496.7556
 293  71.19019
 294  712.6721
 295  897.0734
 296  391.4456
 297  502.5429
 298  928.082
 299  813.8053
 300  599.8421
 301  829.7894
 302  1230.432
 303  1103.063
 304  662.7775
 305  626.895
 306  788.7791
 307  662.0395
 308  431.3386
 309  471.9099
 310  1013.709
 311  962.1531
 312  1140.704
 313  1108.26
 314  1248.456
 315  1726.294
 316  2170.898
 317  2742.628
 318  2909.531
 319  2730.924
 320  1986.356
 321  1327.776
 322  1152.522
 323  582.6762
 324  490.3993
 325  1067.305
 326  818.4867
 327  957.8099
 328  806.9258
 329  686.6384
 330  836.3794
 331  974.4933
 332  598.6035
 333  641.1049
 334  848.6623
 335  494.7682
 336  783.0419
 337  814.5707
 338  383.5855
 339  430.5645
 340  820.4948
 341  1167.351
 342  702.851
 343  613.3497
 344  711.5677
 345  635.0817
 346  550.6432
 347  588.5368
 348  458.2206
 349  470.3426
 350  563.8755
 351  586.5552
 352  610.8552
 353  515.7772
 354  732.8159
 355  661.2888
 356  421.5767
 357  460.0267
 358  584.5197
 359  504.3215
 360  401.9957
 361  419.6711
 362  784.4001
 363  858.5364
 364  629.0406
 365  881.0966
 366  404.7903
 367  570.1507
 368  353.8846
 369  316.0802
 370  243.6087
 371  292.5393
 372  315.8981
 373  839.6225
 374  743.4606
 375  754.985
 376  349.7003
 377  433.3384
 378  455.6421
 379  552.0472
 380  244.6292
 381  299.5822
 382  257.8572
 383  543.228
 384  1056.511
 385  563.7377
 386  485.5978
 387  463.9792
 388  564.9286
 389  449.3687
 390  203.3539
 391  490.3729
 392  934.9845
 393  831.7305
 394  858.8196
 395  722.0991
 396  650.8476
 397  738.3411
 398  514.4549
 399  410.5338
 400  727.5081
 401  981.9639
 402  686.1648
 403  519.1533
 404  800.9369
 405  942.5815
 406  405.5078
 407  166.91
 408  712.431
 409  477.9037
 410  632.3132
 411  682.4952
 412  637.6116
 413  560.8038
 414  658.4302
 415  1031.312
 416  644.7472
 417  303.5215
 418  561.8459
 419  462.7246
 420  379.5724
 421  102.8303
 422  388.1289
 423  470.7856
 424  637.7485
 425  834.9681
 426  372.1697
 427  700.24
 428  748.2548
 429  603.3823
 430  914.4407
 431  867.5133
 432  753.3527
 433  337.6001
 434  570.4144
 435  745.9601
 436  606.8921
 437  767.08
 438  1033.917
 439  977.1102
 440  682.1275
 441  566.6544
 442  832.9999
 443  719.3908
 444  563.3613
 445  853.6506
 446  980.728
 447  266.3345
 448  287.8214
 449  196.8244
 450  -91.08127
 451  159.9925
 452  285.0172
 453  224.2863
 454  149.5143
 455  460.0461
 456  376.7256
 457  258.4228
 458  503.5686
 459  686.0732
 460  489.5706
 461  150.9831
 462  201.9673
 463  362.5673
 464  352.3165
 465  338.7548
 466  446.3384
 467  489.7283
 468  537.472
 469  583.3989
 470  695.9991
 471  556.0522
 472  481.6478
 473  417.1133
 474  352.1742
 475  218.9876
 476  282.7009
 477  264.6758
 478  -1.177177
 479  321.8364
 480  519.3503
 481  448.848
 482  439.4174
 483  312.4142
 484  578.7119
 485  636.6648
 486  707.6627
 487  757.0045
 488  580.7084
 489  652.0084
 490  558.7736
 491  784.6473
 492  356.0825
 493  239.1172
 494  423.5048
 495  271.2328
 496  692.5484
 497  915.5246
 498  747.018
 499  553.5617
 500  300.1924
 501  643.4143
 502  761.215
 503  109.0485
 504  493.2429
 505  820.9011
 506  704.5016
 507  726.8631
 508  470.5551
 509  332.2495
 510  360.0091
 511  598.379
