# Input file       =  1192500920.129434_cleaned.dat
# Candidate        =  PSR_0332+5434
# Telescope        =  AR
# Epoch_topo       =  58046.094202886969
# Epoch_bary       =  N/A
# T_sample         =  0.002
# Data Folded      =  7340032
# Data Avg         =  0.04006338453993 
# Data StdDev      =  2.9510707253143  
# Profile Bins     =  1024
# Profile Avg      =  287.224904595321 
# Profile StdDev   =  249.849575697429 
# Reduced chi-sqr  =  1.433
# Prob(Noise)      <  2.04e-18   (~8.7 sigma)
# P_topo (ms)      =  714.485789057863  +/- 0.000345
# P'_topo (s/s)    =  -0                +/- 1.82e-10
# P''_topo (s/s^2) =  0                 +/- 8.03e-14
# P_bary (ms)      =  N/A
# P'_bary (s/s)    =  N/A
# P''_bary (s/s^2) =  N/A
# P_orb (s)        =  N/A
# asin(i)/c (s)    =  N/A
# eccentricity     =  N/A
# w (rad)          =  N/A
# T_peri           =  N/A
######################################################
   0  236.0003
   1  337.0984
   2  369.1766
   3  457.8775
   4  306.1252
   5  250.1217
   6  33.00131
   7  54.15049
   8  155.3956
   9  276.5735
  10  190.5525
  11  203.0728
  12  206.7362
  13  146.5168
  14  133.0725
  15  -13.98178
  16  11.2982
  17  54.39528
  18  69.37086
  19  77.17182
  20  144.899
  21  234.2689
  22  446.4559
  23  416.1775
  24  582.1272
  25  515.4964
  26  408.2216
  27  273.5392
  28  123.7141
  29  131.0012
  30  202.3301
  31  365.0374
  32  294.86
  33  227.0121
  34  199.7192
  35  288.0274
  36  269.3989
  37  79.73271
  38  125.4528
  39  278.0599
  40  421.2117
  41  403.3807
  42  128.1912
  43  20.12842
  44  73.81257
  45  169.3792
  46  213.6869
  47  75.82621
  48  47.75992
  49  107.0111
  50  41.91585
  51  -11.50926
  52  45.91302
  53  165.2782
  54  296.6416
  55  256.7707
  56  263.4901
  57  140.0975
  58  52.84839
  59  25.35768
  60  59.85059
  61  14.11384
  62  42.27286
  63  229.1909
  64  291.8784
  65  438.276
  66  280.2286
  67  150.497
  68  118.8008
  69  219.699
  70  428.2113
  71  359.2939
  72  217.6595
  73  95.49143
  74  26.56804
  75  -35.43034
  76  -17.08353
  77  -17.3612
  78  49.73275
  79  103.5405
  80  68.63028
  81  106.0331
  82  114.8065
  83  177.5334
  84  280.1006
  85  282.67
  86  296.9304
  87  335.3964
  88  397.5897
  89  410.3206
  90  313.803
  91  203.8253
  92  211.7462
  93  205.4272
  94  215.5853
  95  274.2488
  96  235.8837
  97  318.3438
  98  316.9659
  99  352.8572
 100  422.162
 101  293.5762
 102  259.6031
 103  287.2613
 104  272.9727
 105  400.0518
 106  391.9602
 107  387.2657
 108  252.077
 109  87.22715
 110  45.18758
 111  120.2568
 112  233.5548
 113  269.8427
 114  187.943
 115  60.87432
 116  52.68166
 117  140.4371
 118  235.745
 119  319.5877
 120  176.1472
 121  180.7473
 122  116.4959
 123  160.0313
 124  282.2404
 125  347.2886
 126  354.4541
 127  216.4122
 128  90.73915
 129  106.3921
 130  127.9232
 131  126.6727
 132  121.2863
 133  202.5727
 134  221.7039
 135  311.6483
 136  320.4937
 137  284.8544
 138  88.80061
 139  -20.53032
 140  9.442945
 141  134.4612
 142  90.01679
 143  201.2281
 144  204.2509
 145  334.3948
 146  274.1025
 147  285.2957
 148  200.9699
 149  284.426
 150  254.1349
 151  386.5723
 152  315.742
 153  320.2741
 154  319.388
 155  470.582
 156  557.0288
 157  448.6533
 158  163.2359
 159  184.7691
 160  325.7787
 161  450.7643
 162  451.9319
 163  280.9887
 164  368.6288
 165  319.8675
 166  301.3784
 167  283.7889
 168  377.6226
 169  456.3009
 170  493.2607
 171  407.5454
 172  389.7411
 173  355.127
 174  376.7177
 175  454.1888
 176  393.7057
 177  233.3655
 178  119.24
 179  253.8005
 180  363.8708
 181  396.4327
 182  397.7488
 183  458.2971
 184  521.6445
 185  366.8538
 186  473.1417
 187  444.1037
 188  520.5832
 189  505.2877
 190  408.9535
 191  355.2886
 192  303.325
 193  334.3044
 194  414.2549
 195  365.3755
 196  299.5894
 197  313.0608
 198  394.9399
 199  444.1764
 200  269.0546
 201  205.3534
 202  327.1178
 203  469.7442
 204  429.1708
 205  290.1794
 206  167.1701
 207  149.1783
 208  231.5668
 209  225.7639
 210  145.6691
 211  57.65559
 212  26.98778
 213  146.6534
 214  34.37224
 215  89.78056
 216  83.71217
 217  184.3977
 218  236.2822
 219  323.9988
 220  320.9185
 221  445.5036
 222  419.774
 223  395.247
 224  307.0778
 225  253.5495
 226  219.647
 227  157.3519
 228  225.0039
 229  379.9783
 230  383.9217
 231  389.9857
 232  384.996
 233  395.1197
 234  299.0723
 235  251.1185
 236  221.104
 237  441.1248
 238  404.5633
 239  245.6517
 240  135.5928
 241  110.3907
 242  242.7361
 243  202.9307
 244  252.4516
 245  367.3041
 246  466.9276
 247  376.1867
 248  367.3663
 249  327.3633
 250  425.201
 251  476.8478
 252  350.5423
 253  194.7804
 254  111.962
 255  144.4887
 256  236.3535
 257  208.0588
 258  337.6888
 259  470.2997
 260  574.1878
 261  511.9374
 262  430.7711
 263  259.9185
 264  349.2151
 265  337.4231
 266  386.1753
 267  350.9973
 268  195.2875
 269  193.8797
 270  288.1718
 271  360.5466
 272  358.0602
 273  192.0144
 274  242.4733
 275  352.0468
 276  429.0802
 277  419.8579
 278  416.9225
 279  481.0777
 280  429.5598
 281  321.882
 282  271.8871
 283  339.3454
 284  289.1164
 285  318.3225
 286  270.8693
 287  312.3573
 288  355.2273
 289  356.8305
 290  243.8205
 291  136.0193
 292  156.2514
 293  258.2503
 294  298.2239
 295  259.1786
 296  236.7001
 297  271.9251
 298  256.1996
 299  246.2443
 300  174.8065
 301  227.2807
 302  182.8898
 303  183.1516
 304  175.7357
 305  155.0565
 306  146.6753
 307  143.0513
 308  212.2733
 309  246.021
 310  351.4713
 311  449.3514
 312  435.5442
 313  350.8312
 314  224.4495
 315  256.5454
 316  170.1991
 317  287.2332
 318  378.2772
 319  411.0313
 320  390.0142
 321  369.1187
 322  339.4699
 323  311.0078
 324  293.7358
 325  311.5107
 326  298.2751
 327  362.7642
 328  382.9044
 329  356.5482
 330  114.8142
 331  165.9673
 332  317.6478
 333  509.9753
 334  454.5471
 335  416.5056
 336  408.3884
 337  368.7974
 338  267.5588
 339  274.0541
 340  376.5745
 341  450.5903
 342  409.3692
 343  328.3646
 344  373.2842
 345  434.7538
 346  387.9886
 347  377.2918
 348  403.3665
 349  275.4901
 350  271.1234
 351  148.0095
 352  197.4603
 353  237.5237
 354  390.0762
 355  544.79
 356  493.4212
 357  293.481
 358  76.4054
 359  13.69128
 360  123.2121
 361  227.8359
 362  135.7659
 363  12.92998
 364  -48.62365
 365  36.93242
 366  320.8976
 367  349.1991
 368  416.0909
 369  318.3681
 370  349.6541
 371  384.8212
 372  442.0373
 373  278.083
 374  214.931
 375  188.9775
 376  261.5897
 377  218.1662
 378  75.78213
 379  172.9478
 380  114.8705
 381  111.7011
 382  68.73705
 383  140.1661
 384  278.6159
 385  314.1698
 386  397.1171
 387  372.484
 388  463.1743
 389  431.0401
 390  478.8556
 391  468.9327
 392  509.5263
 393  584.0684
 394  521.0842
 395  530.2283
 396  540.6747
 397  523.8636
 398  554.272
 399  402.475
 400  227.0626
 401  140.0605
 402  235.209
 403  389.3228
 404  365.4485
 405  316.891
 406  215.1582
 407  233.2313
 408  194.8948
 409  339.6627
 410  384.0016
 411  392.0096
 412  325.8958
 413  148.019
 414  205.7494
 415  190.4914
 416  178.7744
 417  156.0358
 418  315.2336
 419  382.0995
 420  432.1921
 421  312.1406
 422  470.0227
 423  492.3279
 424  430.6241
 425  260.0075
 426  134.1594
 427  177.3891
 428  279.1452
 429  334.4767
 430  288.0518
 431  195.1925
 432  91.83019
 433  156.0387
 434  207.6156
 435  115.2762
 436  151.7101
 437  207.0974
 438  430.9252
 439  395.9492
 440  193.7505
 441  127.692
 442  162.5294
 443  257.6317
 444  323.4257
 445  372.5392
 446  464.7738
 447  471.6835
 448  318.4881
 449  297.961
 450  276.7759
 451  332.4122
 452  402.2281
 453  366.1864
 454  349.5107
 455  285.767
 456  451.6462
 457  464.7724
 458  428.0502
 459  237.4217
 460  261.9755
 461  209.7109
 462  172.2029
 463  109.9129
 464  144.3813
 465  275.4459
 466  318.5326
 467  316.596
 468  305.9796
 469  214.4142
 470  169.3159
 471  171.5074
 472  218.1826
 473  114.8518
 474  82.0647
 475  159.1071
 476  287.8145
 477  298.7261
 478  325.4688
 479  377.5456
 480  358.9874
 481  349.3315
 482  307.2332
 483  260.8562
 484  312.4256
 485  351.9095
 486  297.3063
 487  335.1259
 488  387.9493
 489  410.8354
 490  374.4857
 491  225.4874
 492  163.1362
 493  189.2644
 494  310.3229
 495  376.7252
 496  327.3682
 497  250.629
 498  225.5242
 499  106.7839
 500  50.55024
 501  69.23956
 502  82.5389
 503  164.717
 504  193.7483
 505  202.961
 506  233.905
 507  186.2251
 508  184.0275
 509  274.7715
 510  238.5785
 511  225.6135
 512  101.2122
 513  125.3398
 514  164.4034
 515  134.399
 516  177.3892
 517  329.3041
 518  341.8748
 519  272.391
 520  80.12601
 521  -44.19899
 522  26.80261
 523  54.62161
 524  82.34643
 525  68.49246
 526  -19.85546
 527  145.7954
 528  129.9508
 529  104.6403
 530  158.8347
 531  303.3117
 532  426.03
 533  455.3774
 534  321.3488
 535  376.1881
 536  391.7919
 537  371.8116
 538  300.5229
 539  83.68011
 540  90.56422
 541  49.19673
 542  58.74739
 543  31.84819
 544  47.75424
 545  137.6187
 546  265.4183
 547  292.7008
 548  225.2285
 549  204.4673
 550  147.4987
 551  155.7718
 552  161.1907
 553  198.3847
 554  301.2742
 555  307.4073
 556  312.3909
 557  239.7139
 558  142.8367
 559  167.3908
 560  161.993
 561  67.72006
 562  179.3356
 563  240.7266
 564  349.1714
 565  318.2183
 566  254.6231
 567  199.2785
 568  198.5401
 569  162.3435
 570  233.6652
 571  301.5041
 572  353.5861
 573  459.4972
 574  325.9275
 575  308.0164
 576  203.2205
 577  237.5867
 578  223.8784
 579  138.3084
 580  6.131225
 581  27.09423
 582  227.7564
 583  337.6561
 584  283.8613
 585  80.45544
 586  7.243433
 587  197.3799
 588  312.3567
 589  541.249
 590  436.7359
 591  303.8005
 592  188.8473
 593  154.2042
 594  236.7587
 595  399.0098
 596  450.0653
 597  506.0521
 598  392.9804
 599  298.3073
 600  300.2229
 601  331.2116
 602  451.8905
 603  490.825
 604  615.5774
 605  662.8578
 606  571.4184
 607  373.092
 608  374.9242
 609  289.3974
 610  308.9574
 611  350.7751
 612  367.2731
 613  399.1363
 614  344.1069
 615  289.6745
 616  247.431
 617  120.7024
 618  217.8793
 619  396.237
 620  524.3846
 621  502.9447
 622  488.7667
 623  504.2599
 624  613.7463
 625  557.2429
 626  552.3242
 627  543.5212
 628  605.5638
 629  742.686
 630  864.7
 631  976.6713
 632  1104.979
 633  1220.739
 634  1387.924
 635  1459.607
 636  1413.845
 637  1484.267
 638  1367.314
 639  1209.575
 640  991.2747
 641  812.1595
 642  644.751
 643  571.6072
 644  551.467
 645  526.0998
 646  265.4094
 647  157.7474
 648  236.4321
 649  459.624
 650  546.2291
 651  491.1482
 652  368.5549
 653  396.489
 654  512.2321
 655  530.298
 656  394.4932
 657  337.3531
 658  301.156
 659  414.4447
 660  388.2917
 661  459.0824
 662  525.0261
 663  393.0136
 664  290.9102
 665  269.1746
 666  279.138
 667  446.6393
 668  422.8816
 669  339.9827
 670  242.2131
 671  258.7946
 672  423.1139
 673  433.9622
 674  420.1901
 675  304.6373
 676  192.4135
 677  129.2971
 678  235.2632
 679  270.6815
 680  410.6882
 681  576.0497
 682  598.7433
 683  467.2593
 684  341.1695
 685  292.9605
 686  315.8755
 687  348.3811
 688  354.8352
 689  392.4116
 690  271.1893
 691  284.6594
 692  257.2606
 693  294.4428
 694  319.9867
 695  237.0299
 696  223.5697
 697  237.6309
 698  224.6971
 699  232.3555
 700  293.928
 701  301.3336
 702  330.0548
 703  257.7407
 704  333.6609
 705  306.3308
 706  231.3626
 707  254.917
 708  404.104
 709  380.4743
 710  367.0355
 711  235.5943
 712  203.0662
 713  210.1696
 714  165.636
 715  335.8988
 716  273.9311
 717  295.2763
 718  233.3626
 719  262.5899
 720  175.619
 721  169.976
 722  197.6716
 723  283.5532
 724  403.9261
 725  489.1675
 726  444.0285
 727  302.9332
 728  266.2552
 729  466.0258
 730  470.3542
 731  258.9467
 732  206.0575
 733  244.212
 734  328.491
 735  209.0421
 736  157.7841
 737  172.4385
 738  167.366
 739  78.03758
 740  162.6172
 741  127.9215
 742  183.3873
 743  104.3314
 744  130.7711
 745  319.7021
 746  416.4265
 747  419.8278
 748  363.2931
 749  393.7457
 750  407.7047
 751  242.277
 752  146.2064
 753  221.9431
 754  213.0193
 755  175.6177
 756  250.506
 757  305.7762
 758  291.5372
 759  181.0839
 760  118.9987
 761  80.95011
 762  190.0937
 763  113.2635
 764  167.4184
 765  88.34304
 766  285.1105
 767  482.2038
 768  537.5728
 769  430.6378
 770  258.5805
 771  218.7861
 772  249.174
 773  249.5685
 774  216.9081
 775  289.1216
 776  252.4956
 777  307.8478
 778  213.42
 779  129.4717
 780  115.3808
 781  110.636
 782  227.7503
 783  441.1402
 784  461.873
 785  451.5906
 786  395.2808
 787  439.3941
 788  435.906
 789  398.3005
 790  351.1705
 791  331.6699
 792  300.9882
 793  395.1624
 794  381.8763
 795  287.3906
 796  278.4562
 797  215.8927
 798  191.155
 799  188.1741
 800  359.8568
 801  543.5535
 802  529.8555
 803  375.6634
 804  342.3258
 805  327.1175
 806  212.1649
 807  314.3812
 808  363.1669
 809  455.8502
 810  497.7691
 811  439.1778
 812  212.7675
 813  -12.29255
 814  55.59413
 815  287.3705
 816  355.2732
 817  315.2426
 818  260.0047
 819  228.3608
 820  348.7587
 821  383.209
 822  327.9758
 823  303.1197
 824  293.2153
 825  322.5863
 826  294.085
 827  240.2792
 828  336.6183
 829  464.3798
 830  515.1476
 831  494.266
 832  299.5064
 833  175.6145
 834  133.6371
 835  229.3973
 836  306.6859
 837  246.2691
 838  236.3486
 839  195.2636
 840  210.6257
 841  124.8932
 842  69.61568
 843  33.78256
 844  232.4372
 845  271.6749
 846  235.9299
 847  160.7004
 848  326.0214
 849  440.1146
 850  446.4503
 851  285.2249
 852  156.1564
 853  257.3288
 854  299.0834
 855  460.7325
 856  364.3357
 857  288.3182
 858  316.0981
 859  360.1261
 860  513.6948
 861  414.6795
 862  431.4559
 863  425.7023
 864  410.2766
 865  204.0883
 866  195.6391
 867  156.0307
 868  301.3636
 869  390.7496
 870  366.462
 871  337.122
 872  306.7473
 873  270.6368
 874  414.9833
 875  467.9999
 876  532.7623
 877  491.8524
 878  472.4636
 879  449.7161
 880  365.1385
 881  249.1996
 882  302.3731
 883  352.3301
 884  403.8612
 885  436.2242
 886  336.4912
 887  313.8193
 888  288.0558
 889  271.9272
 890  460.6478
 891  551.9119
 892  506.5758
 893  316.5543
 894  70.98139
 895  98.67879
 896  160.1813
 897  180.6649
 898  115.4731
 899  -8.506824
 900  -67.49838
 901  16.95102
 902  50.88678
 903  127.4505
 904  131.8086
 905  209.6947
 906  107.0532
 907  -4.377339
 908  56.62357
 909  221.6084
 910  238.2666
 911  169.4192
 912  218.8277
 913  163.043
 914  129.8381
 915  115.2448
 916  269.4995
 917  351.2114
 918  331.9175
 919  313.9656
 920  266.5318
 921  150.596
 922  67.36543
 923  36.71646
 924  69.48328
 925  195.0204
 926  177.4259
 927  156.7037
 928  194.9754
 929  179.6049
 930  191.4642
 931  187.0648
 932  220.2035
 933  237.1724
 934  234.2451
 935  237.1547
 936  304.8464
 937  234.3616
 938  322.7777
 939  319.5954
 940  359.3028
 941  293.5363
 942  318.3875
 943  226.1416
 944  297.5503
 945  144.4312
 946  253.3754
 947  187.7235
 948  176.0963
 949  101.7662
 950  108.6861
 951  118.2558
 952  151.9327
 953  192.8377
 954  137.8648
 955  42.55054
 956  -32.85538
 957  49.84822
 958  179.295
 959  200.6558
 960  309.496
 961  226.0117
 962  214.9989
 963  257.2751
 964  194.8995
 965  198.9853
 966  129.5018
 967  205.2676
 968  339.4758
 969  304.8726
 970  318.3025
 971  326.7967
 972  335.4826
 973  375.2057
 974  390.3417
 975  346.5617
 976  301.6328
 977  287.9702
 978  319.5106
 979  319.335
 980  244.4701
 981  331.3736
 982  417.9985
 983  330.0672
 984  201.4036
 985  46.41996
 986  103.9808
 987  227.8391
 988  215.4742
 989  134.3028
 990  133.2476
 991  230.4812
 992  361.1152
 993  407.9755
 994  469.0338
 995  451.4629
 996  348.0999
 997  313.2797
 998  309.187
 999  183.7469
1000  124.6864
1001  227.2121
1002  306.0035
1003  421.897
1004  380.6355
1005  251.2356
1006  28.23115
1007  33.46431
1008  259.5651
1009  456.0773
1010  375.2248
1011  348.8537
1012  342.7141
1013  364.9775
1014  415.7882
1015  267.0404
1016  263.4142
1017  210.9999
1018  132.3915
1019  146.8392
1020  155.081
1021  281.573
1022  319.9744
1023  259.4686
