# Input file       =  1192500920.129434_cleaned.dat
# Candidate        =  PSR_0332+5434
# Telescope        =  AR
# Epoch_topo       =  58046.094202886969
# Epoch_bary       =  N/A
# T_sample         =  0.002
# Data Folded      =  7340032
# Data Avg         =  0.04006338453993 
# Data StdDev      =  2.9510707253143  
# Profile Bins     =  512
# Profile Avg      =  574.449809190643 
# Profile StdDev   =  353.340658504467 
# Reduced chi-sqr  =  1.556
# Prob(Noise)      <  1.04e-14   (~7.6 sigma)
# P_topo (ms)      =  714.485789057863  +/- 0.000354
# P'_topo (s/s)    =  -0                +/- 1.87e-10
# P''_topo (s/s^2) =  0                 +/- 8.25e-14
# P_bary (ms)      =  N/A
# P'_bary (s/s)    =  N/A
# P''_bary (s/s^2) =  N/A
# P_orb (s)        =  N/A
# asin(i)/c (s)    =  N/A
# eccentricity     =  N/A
# w (rad)          =  N/A
# T_peri           =  N/A
######################################################
   0  342.1705
   1  328.2895
   2  670.2935
   3  610.5735
   4  272.7252
   5  86.03017
   6  335.6829
   7  362.9875
   8  397.2989
   9  375.8122
  10  454.8309
  11  538.3331
  12  553.4357
  13  665.3441
  14  609.72
  15  557.6227
  16  397.8873
  17  381.3007
  18  226.4373
  19  256.1243
  20  350.9803
  21  32.62984
  22  160.7949
  23  494.2302
  24  472.9511
  25  444.0719
  26  338.378
  27  504.9642
  28  639.6343
  29  646.8133
  30  748.379
  31  692.4093
  32  591.6182
  33  571.6385
  34  695.8707
  35  624.1688
  36  155.256
  37  434.9194
  38  253.7617
  39  535.5488
  40  860.1874
  41  830.4479
  42  626.4858
  43  357.2914
  44  461.6352
  45  791.7509
  46  418.0643
  47  186.0456
  48  819.622
  49  671.1096
  50  786.5672
  51  585.9214
  52  381.7336
  53  278.0488
  54  559.5158
  55  528.353
  56  643.821
  57  793.2994
  58  373.0033
  59  174.7634
  60  458.7212
  61  403.2153
  62  313.3329
  63  28.49957
  64  103.0232
  65  177.4689
  66  612.5621
  67  955.4131
  68  980.9347
  69  473.7353
  70  288.5639
  71  658.5888
  72  444.5586
  73  543.1869
  74  237.1954
  75  607.7344
  76  641.9312
  77  82.24464
  78  396.7217
  79  121.954
  80  157.1697
  81  21.97175
  82  417.3831
  83  520.709
  84  231.9844
  85  94.64596
  86  56.36948
  87  451.6774
  88  730.7297
  89  300.2625
  90  583.1664
  91  657.0994
  92  147.3968
  93  -30.9273
  94  18.54943
  95  148.4856
  96  203.1677
  97  404.6062
  98  603.404
  99  697.7632
 100  759.078
 101  443.9619
 102  424.533
 103  466.7719
 104  616.5597
 105  764.8209
 106  607.0779
 107  525.8947
 108  764.3671
 109  698.9148
 110  178.8965
 111  272.8085
 112  494.3887
 113  160.9031
 114  309.8171
 115  532.6616
 116  290.2731
 117  411.4308
 118  681.6965
 119  371.8362
 120  210.1891
 121  277.2408
 122  379.0556
 123  607.2103
 124  456.3104
 125  2.223047
 126  197.4013
 127  373.0354
 128  606.4621
 129  491.8151
 130  526.0153
 131  670.7028
 132  640.6509
 133  980.4711
 134  739.1076
 135  402.7216
 136  902.1826
 137  687.2017
 138  618.9486
 139  614.8834
 140  953.8141
 141  850.6164
 142  701.0192
 143  851.8286
 144  424.7375
 145  556.0156
 146  769.9143
 147  948.775
 148  855.938
 149  965.653
 150  933.7739
 151  674.887
 152  733.0393
 153  693.4319
 154  663.3643
 155  779.092
 156  485.0439
 157  913.6241
 158  510.0052
 159  340.6771
 160  438.5092
 161  91.48411
 162  172.9722
 163  150.8181
 164  399.2652
 165  613.0387
 166  844.2386
 167  746.9077
 168  510.868
 169  341.6985
 170  720.5618
 171  784.4324
 172  732.4757
 173  471.9478
 174  788.4661
 175  477.9097
 176  337.3823
 177  423.7922
 178  767.5025
 179  800.0577
 180  721.2374
 181  874.7888
 182  336.7589
 183  356.9261
 184  522.8504
 185  967.191
 186  1002.558
 187  602.1057
 188  738.593
 189  590.4381
 190  448.6663
 191  724.1764
 192  464.1302
 193  715.9205
 194  829.2961
 195  933.599
 196  614.5087
 197  615.1409
 198  576.2804
 199  669.3105
 200  665.8121
 201  278.9948
 202  515.9924
 203  528.656
 204  526.8566
 205  438.6422
 206  407.6207
 207  367.7788
 208  309.2708
 209  316.5977
 210  549.3522
 211  877.4503
 212  634.3516
 213  432.5123
 214  601.4739
 215  806.0477
 216  728.9738
 217  595.4747
 218  635.7565
 219  724.9337
 220  557.8972
 221  367.425
 222  958.3026
 223  856.5103
 224  687.9735
 225  567.0522
 226  890.647
 227  696.4976
 228  830.7487
 229  776.1547
 230  594.9731
 231  355.7485
 232  537.6315
 233  1054.213
 234  504.219
 235  89.92638
 236  362.3372
 237  7.889534
 238  247.8094
 239  763.0103
 240  682.1737
 241  801.1113
 242  568.7791
 243  427.4516
 244  336.9387
 245  273.8943
 246  194.866
 247  368.4502
 248  674.8187
 249  808.3908
 250  927.6099
 251  955.9086
 252  1085.634
 253  1071.811
 254  1090.83
 255  728.9508
 256  322.3534
 257  745.1901
 258  598.1581
 259  428.0215
 260  647.3624
 261  762.0834
 262  383.2567
 263  380.2461
 264  407.8916
 265  799.1605
 266  770.1911
 267  942.6141
 268  461.1524
 269  402.1958
 270  649.8659
 271  318.9254
 272  336.4349
 273  280.6318
 274  561.1274
 275  671.5444
 276  266.8983
 277  558.5493
 278  793.1986
 279  830.2767
 280  571.8757
 281  726.0291
 282  741.1677
 283  672.0598
 284  922.9108
 285  536.5715
 286  428.7686
 287  229.7809
 288  543.3317
 289  664.6295
 290  410.6388
 291  368.0793
 292  213.0573
 293  412.0435
 294  626.645
 295  706.57
 296  677.3384
 297  561.073
 298  663.3237
 299  686.2572
 300  815.3124
 301  443.8602
 302  448.129
 303  699.9625
 304  526.4506
 305  210.1705
 306  108.3279
 307  325.3711
 308  439.6068
 309  389.0958
 310  493.8924
 311  363.9496
 312  280.9566
 313  288.5722
 314  639.9061
 315  428.8395
 316  -23.16322
 317  151.1971
 318  51.05188
 319  235.674
 320  247.0258
 321  661.1805
 322  804.4016
 323  741.1707
 324  739.7481
 325  217.6095
 326  113.9627
 327  55.71192
 328  355.5982
 329  541.3651
 330  378.1618
 331  306.6191
 332  479.4291
 333  609.4343
 334  415.7325
 335  323.4267
 336  253.7458
 337  543.4777
 338  582.3572
 339  423.8044
 340  377.0066
 341  617.5075
 342  784.8059
 343  551.7416
 344  469.5334
 345  213.5733
 346  140.9488
 347  665.2159
 348  150.7964
 349  408.4664
 350  962.73
 351  566.8375
 352  361.9996
 353  781.6095
 354  919.7899
 355  622.3505
 356  746.5128
 357  1041.363
 358  1276.07
 359  801.7418
 360  604.3118
 361  709.5083
 362  744.9464
 363  585.6581
 364  309.9582
 365  846.1469
 366  1005.441
 367  1090.593
 368  1134.009
 369  1110.175
 370  1515.246
 371  2033.777
 372  2526.506
 373  2884.415
 374  2862.142
 375  2334.754
 376  1542.346
 377  1114.057
 378  897.5553
 379  375.7059
 380  945.0648
 381  913.0709
 382  850.1295
 383  986.6565
 384  648.2183
 385  761.5605
 386  947.8303
 387  773.3453
 388  513.1514
 389  839.0789
 390  639.9777
 391  644.0415
 392  854.5444
 393  543.4423
 394  352.068
 395  644.9835
 396  1123.531
 397  881.1552
 398  632.278
 399  680.9762
 400  676.3963
 401  545.0863
 402  604.1128
 403  492.6403
 404  443.5035
 405  484.3513
 406  666.8027
 407  586.3797
 408  562.6989
 409  593.1093
 410  796.3962
 411  467.4049
 412  362.572
 413  589.7422
 414  554.0349
 415  460.3726
 416  330.3092
 417  621.4119
 418  970.5887
 419  582.856
 420  904.4807
 421  511.5269
 422  561.7964
 423  414.5909
 424  328.1935
 425  237.0718
 426  305.5544
 427  247.8272
 428  644.1425
 429  806.5145
 430  802.9888
 431  447.2293
 432  418.0545
 433  419.1652
 434  602.9399
 435  339.1475
 436  231.9093
 437  318.7029
 438  320.1913
 439  959.228
 440  754.5696
 441  467.8309
 442  492.2025
 443  511.1172
 444  545.7463
 445  277.2722
 446  286.5921
 447  854.3467
 448  847.4933
 449  889.6211
 450  780.1364
 451  626.6875
 452  754.351
 453  599.4476
 454  434.6778
 455  465.5018
 456  1053.517
 457  782.1366
 458  560.2285
 459  617.8321
 460  917.7625
 461  795.1132
 462  14.50193
 463  561.739
 464  631.9933
 465  577.9904
 466  718.7071
 467  581.483
 468  629.4431
 469  547.5214
 470  926.8141
 471  864.8889
 472  340.1247
 473  511.2612
 474  492.0107
 475  400.1318
 476  253.6803
 477  208.9016
 478  523.902
 479  428.1223
 480  888.1465
 481  519.5466
 482  476.0602
 483  829.1103
 484  606.9464
 485  845.8295
 486  848.082
 487  847.6011
 488  457.8554
 489  414.3649
 490  749.4435
 491  645.672
 492  668.2535
 493  967.9512
 494  973.7183
 495  855.2731
 496  573.8287
 497  726.5129
 498  786.6884
 499  600.6115
 500  694.4807
 501  1071.022
 502  494.2775
 503  225.5032
 504  347.1069
 505  -38.01037
 506  27.53912
 507  216.4037
 508  358.6279
 509  23.83374
 510  435.5071
 511  371.0293
