# Input file       =  1195430911.110719-PSRB0329-2ms-sampling-dd.dat
# Candidate        =  PSR_0332+5434
# Telescope        =  AR
# Epoch_topo       =  58080.006135540731
# Epoch_bary       =  N/A
# T_sample         =  0.002
# Data Folded      =  7340032
# Data Avg         =  1.73313958164015e-09
# Data StdDev      =  15.979701943797  
# Profile Bins     =  512
# Profile Avg      =  -0.0791148009631613
# Profile StdDev   =  1913.29823412653 
# Reduced chi-sqr  =  0.700
# Prob(Noise)      <  1   (~0.0 sigma)
# P_topo (ms)      =  714.517749752996  +/- 3.56e-05
# P'_topo (s/s)    =  -0                +/- 1.88e-11
# P''_topo (s/s^2) =  0                 +/- 8.3e-15
# P_bary (ms)      =  N/A
# P'_bary (s/s)    =  N/A
# P''_bary (s/s^2) =  N/A
# P_orb (s)        =  N/A
# asin(i)/c (s)    =  N/A
# eccentricity     =  N/A
# w (rad)          =  N/A
# T_peri           =  N/A
######################################################
   0  869.4187
   1  1374.372
   2  -120.1347
   3  -285.914
   4  474.7203
   5  370.2851
   6  -1235.081
   7  487.3326
   8  818.4316
   9  -471.9659
  10  -1069.506
  11  -594.8478
  12  -566.8123
  13  -1175.439
  14  -1031.921
  15  647.1293
  16  -735.6224
  17  -396.7481
  18  -255.3824
  19  873.519
  20  -483.8576
  21  -1162.32
  22  -112.6093
  23  -966.7094
  24  -674.9708
  25  61.85384
  26  618.9488
  27  -1007.104
  28  -1461.175
  29  -399.7479
  30  -748.8314
  31  -1012.073
  32  -736.073
  33  805.6893
  34  865.0477
  35  730.544
  36  556.2111
  37  341.084
  38  -1293.207
  39  -1082.31
  40  -658.3874
  41  -689.1919
  42  -485.349
  43  -151.9881
  44  420.8787
  45  -1304.036
  46  -2046.539
  47  -1339.705
  48  -886.0364
  49  -1384.429
  50  -385.7394
  51  418.2858
  52  -599.8935
  53  -928.2838
  54  -307.3028
  55  -275.2548
  56  -1122.479
  57  -1002.309
  58  -204.9238
  59  -1320.898
  60  -1475.638
  61  -1674.114
  62  367.4599
  63  477.4356
  64  -74.47462
  65  231.4633
  66  -372.8676
  67  -1231.462
  68  -341.246
  69  1465.983
  70  -23.44382
  71  -501.2746
  72  1090.292
  73  353.358
  74  -54.22229
  75  722.4592
  76  1592.733
  77  896.7647
  78  86.52864
  79  128.9206
  80  379.2231
  81  -143.5668
  82  1347.789
  83  1956.054
  84  -141.4212
  85  -1016.541
  86  922.9485
  87  1348.215
  88  -101.3766
  89  -756.1169
  90  1586.144
  91  479.459
  92  -814.6332
  93  901.0825
  94  1723.392
  95  -132.838
  96  -1971.604
  97  -1459.682
  98  -1268.039
  99  -1592.277
 100  -128.4509
 101  954.6014
 102  -356.4252
 103  -963.8605
 104  -199.437
 105  -329.5887
 106  -1292.791
 107  -175.5757
 108  268.0862
 109  -841.0105
 110  -636.374
 111  -1221.713
 112  -1180.539
 113  -869.0548
 114  -205.6114
 115  573.9357
 116  -641.0565
 117  -696.3803
 118  -567.2089
 119  -108.6001
 120  -181.5317
 121  -553.2938
 122  553.999
 123  161.7102
 124  -1196.52
 125  -1752.618
 126  -862.1091
 127  -1596.86
 128  -1538.46
 129  144.9501
 130  1117.211
 131  -44.59598
 132  518.8633
 133  761.9401
 134  581.4761
 135  -482.4122
 136  1395.395
 137  532.6731
 138  -1473.182
 139  -1812.942
 140  -1090.582
 141  -834.5292
 142  -1145.477
 143  -83.0155
 144  16.51793
 145  -1097.948
 146  -1742.711
 147  -1373.649
 148  -542.9938
 149  -668.5332
 150  -730.5956
 151  504.5752
 152  -257.1059
 153  -353.9457
 154  -1012.644
 155  -844.4678
 156  -1076.205
 157  -1503.887
 158  -239.9121
 159  -251.0428
 160  392.0995
 161  -87.93008
 162  720.6257
 163  787.1888
 164  391.3701
 165  1571.984
 166  1015.362
 167  434.2895
 168  592.8325
 169  1897.472
 170  1411.934
 171  381.011
 172  1196.325
 173  832.4532
 174  -756.4377
 175  789.7747
 176  1371.353
 177  2003.938
 178  1201.898
 179  1881.834
 180  1174.153
 181  -974.4668
 182  -1364.617
 183  -314.8116
 184  -1365.984
 185  -617.6316
 186  -246.4556
 187  185.9563
 188  1003.031
 189  1667.859
 190  257.3086
 191  -235.762
 192  -1057.268
 193  -238.6642
 194  676.6216
 195  569.3141
 196  -500.8562
 197  208.4545
 198  311.6912
 199  336.5715
 200  491.0383
 201  1320.622
 202  1058.072
 203  204.5762
 204  192.2867
 205  -175.326
 206  -156.5454
 207  -822.4854
 208  -212.433
 209  -525.4724
 210  -1320.715
 211  -809.9471
 212  599.9661
 213  253.1956
 214  -1176.274
 215  -1385.684
 216  -1037.918
 217  -1762.538
 218  -48.85592
 219  -594.689
 220  -1188.28
 221  -1016.188
 222  -10.14748
 223  -571.0822
 224  -1856.185
 225  -853.9105
 226  579.8434
 227  -26.53352
 228  -88.42977
 229  683.7634
 230  554.778
 231  -1401.197
 232  -1784.835
 233  482.5554
 234  274.9084
 235  -582.8261
 236  -330.7316
 237  935.144
 238  661.2442
 239  -466.5833
 240  328.6909
 241  199.0906
 242  -806.3352
 243  -1333.289
 244  990.4202
 245  281.7699
 246  64.65509
 247  490.1327
 248  373.8355
 249  -556.056
 250  -380.1983
 251  1043.548
 252  -205.9544
 253  -1072.601
 254  -972.5784
 255  -944.0776
 256  -403.3301
 257  281.3074
 258  1216.528
 259  1921.089
 260  70.21023
 261  699.9704
 262  846.5527
 263  373.6633
 264  75.16954
 265  1231.445
 266  1455.59
 267  981.2465
 268  -814.8181
 269  -39.14749
 270  785.0139
 271  923.4218
 272  883.3959
 273  737.0166
 274  144.1083
 275  761.1284
 276  706.7544
 277  304.2579
 278  -530.3295
 279  -510.4665
 280  177.3445
 281  -936.1233
 282  -1085.341
 283  119.639
 284  990.4895
 285  1330.441
 286  -89.18729
 287  295.1088
 288  19.86114
 289  -978.1285
 290  820.8347
 291  1202.918
 292  209.6248
 293  -368.3299
 294  -5.344779
 295  -421.1301
 296  -1898.486
 297  -1547.989
 298  174.4941
 299  -813.9797
 300  -1510.439
 301  -157.9023
 302  680.5582
 303  52.68715
 304  -131.116
 305  -13.41476
 306  -1151.812
 307  -1734.29
 308  -701.0005
 309  175.7162
 310  350.1029
 311  1177.092
 312  1470.323
 313  1549.249
 314  146.0838
 315  -312.2411
 316  793.4875
 317  -72.6554
 318  1356.936
 319  1814.641
 320  1294.775
 321  510.9545
 322  -1077.237
 323  -71.06582
 324  -1303.598
 325  -890.8801
 326  -82.70876
 327  267.7542
 328  -1167.27
 329  -1448.884
 330  -146.6053
 331  -604.9537
 332  -224.7447
 333  776.7676
 334  1872.895
 335  1314.864
 336  271.0063
 337  393.5086
 338  -1779.617
 339  -1548.693
 340  -127.912
 341  998.2629
 342  1654.119
 343  1467.962
 344  1481.152
 345  131.3357
 346  -1000.751
 347  584.3175
 348  1489.545
 349  889.4611
 350  -156.0197
 351  -136.5648
 352  -633.2274
 353  -1478.164
 354  -1456.517
 355  -259.4092
 356  -168.8168
 357  -477.5539
 358  10.47929
 359  1102.137
 360  -173.4935
 361  -743.2365
 362  75.77006
 363  30.63902
 364  -428.4695
 365  -89.14487
 366  750.4263
 367  -620.3477
 368  -1153.484
 369  334.506
 370  1283.781
 371  1321.075
 372  448.4964
 373  1385.747
 374  -554.9292
 375  -362.8933
 376  578.0162
 377  243.828
 378  -36.07304
 379  116.8426
 380  350.2452
 381  668.7314
 382  -379.3231
 383  802.7251
 384  1114.48
 385  541.2098
 386  686.9653
 387  1880.481
 388  1203.266
 389  -596.1235
 390  437.2808
 391  281.9166
 392  416.3295
 393  1117.3
 394  1824.625
 395  1012.639
 396  -959.902
 397  -1448.969
 398  -368.2055
 399  -1012.805
 400  -104.765
 401  354.8967
 402  783.6395
 403  -239.9792
 404  -637.0088
 405  530.1539
 406  -665.009
 407  -802.2606
 408  -647.3181
 409  -96.34234
 410  -485.4981
 411  -1587.355
 412  54.22495
 413  496.1065
 414  -666.3338
 415  -70.37574
 416  -274.5179
 417  -471.928
 418  -750.5342
 419  -891.3444
 420  568.6757
 421  -672.6948
 422  -725.0035
 423  2214.382
 424  304.8654
 425  247.9744
 426  2725.131
 427  -211.6058
 428  2819.061
 429  11602.83
 430  5039.229
 431  5395.325
 432  6107.085
 433  5801.385
 434  2494.564
 435  -323.6073
 436  1177.611
 437  -272.6248
 438  -403.1949
 439  427.228
 440  680.1935
 441  1051.78
 442  239.9972
 443  -454.2912
 444  494.2122
 445  1179.317
 446  -1616.818
 447  -147.0144
 448  1033.779
 449  339.1583
 450  -136.4416
 451  -662.4222
 452  132.6961
 453  -996.6221
 454  -1172.225
 455  1685.6
 456  1841.129
 457  977.0195
 458  -460.6046
 459  525.5422
 460  -807.5651
 461  -759.9305
 462  506.1593
 463  616.2693
 464  -871.2948
 465  -1403.375
 466  229.1469
 467  -357.8679
 468  -859.1432
 469  -733.4223
 470  -1479.497
 471  -1866.257
 472  -689.0445
 473  -351.2641
 474  -651.8275
 475  -2591.617
 476  -1646.312
 477  -856.1028
 478  -1309.408
 479  -1745.903
 480  -515.2482
 481  -319.7745
 482  -1316.781
 483  -995.0424
 484  300.219
 485  -229.1912
 486  -640.0584
 487  592.3397
 488  1415.347
 489  457.2922
 490  -550.5468
 491  818.2733
 492  169.2705
 493  -569.829
 494  -97.58051
 495  225.9068
 496  -672.8294
 497  -1946.809
 498  -978.5078
 499  -1020.606
 500  -765.1116
 501  -731.8655
 502  1037.14
 503  1201.837
 504  1131.194
 505  1207.766
 506  175.1807
 507  302.4534
 508  -149.7979
 509  648.849
 510  -215.7287
 511  -278.6401
