# Input file       =  1195171863.10669_cleaned.dat
# Candidate        =  PSR_0332+5434
# Telescope        =  AR
# Epoch_topo       =  58077.007894753355
# Epoch_bary       =  N/A
# T_sample         =  0.002
# Data Folded      =  7340032
# Data Avg         =  0.0538775324022636
# Data StdDev      =  1.00018415710507 
# Profile Bins     =  512
# Profile Avg      =  772.388837839299 
# Profile StdDev   =  119.755086066126 
# Reduced chi-sqr  =  0.601
# Prob(Noise)      <  1   (~0.0 sigma)
# P_topo (ms)      =  714.514638687035  +/- 3.03e-05
# P'_topo (s/s)    =  -0                +/- 1.6e-11
# P''_topo (s/s^2) =  0                 +/- 7.07e-15
# P_bary (ms)      =  N/A
# P'_bary (s/s)    =  N/A
# P''_bary (s/s^2) =  N/A
# P_orb (s)        =  N/A
# asin(i)/c (s)    =  N/A
# eccentricity     =  N/A
# w (rad)          =  N/A
# T_peri           =  N/A
######################################################
   0  738.8877
   1  674.7339
   2  657.3369
   3  819.8977
   4  754.2197
   5  680.0956
   6  638.8972
   7  735.7025
   8  727.0728
   9  715.961
  10  849.7112
  11  867.2191
  12  848.8382
  13  798.7513
  14  746.7737
  15  822.1385
  16  742.0284
  17  709.0801
  18  793.4794
  19  841.3256
  20  776.7576
  21  706.5648
  22  868.9974
  23  710.7718
  24  655.2219
  25  748.9857
  26  783.4288
  27  727.4315
  28  748.7584
  29  780.8814
  30  781.824
  31  718.3597
  32  733.1906
  33  684.1373
  34  668.022
  35  713.8854
  36  792.6103
  37  773.1896
  38  666.6359
  39  682.6383
  40  694.3542
  41  638.1694
  42  747.8915
  43  746.5249
  44  748.9622
  45  764.662
  46  873.2629
  47  873.7988
  48  776.6704
  49  785.3365
  50  856.4011
  51  789.9723
  52  774.4492
  53  772.1725
  54  825.7723
  55  767.5676
  56  679.7667
  57  730.5204
  58  811.6888
  59  855.7566
  60  850.6722
  61  857.7131
  62  857.4429
  63  731.256
  64  686.8094
  65  816.181
  66  815.7054
  67  837.5599
  68  947.1562
  69  995.9287
  70  899.9272
  71  841.3232
  72  868.5477
  73  700.5825
  74  730.0909
  75  809.4401
  76  803.1402
  77  813.8624
  78  831.7017
  79  857.2285
  80  725.2328
  81  757.9341
  82  779.0294
  83  893.1867
  84  897.2366
  85  825.4795
  86  811.9134
  87  852.3817
  88  792.8227
  89  752.7338
  90  737.787
  91  734.7307
  92  624.7106
  93  678.5727
  94  741.4103
  95  704.5347
  96  694.0175
  97  732.9301
  98  731.2678
  99  772.1973
 100  808.7711
 101  765.3834
 102  730.0425
 103  765.1953
 104  794.8911
 105  776.756
 106  748.0554
 107  706.3099
 108  735.0607
 109  727.0227
 110  733.2482
 111  744.1423
 112  788.8875
 113  760.9134
 114  794.1287
 115  799.5081
 116  741.3549
 117  730.1388
 118  749.1288
 119  726.8559
 120  682.9902
 121  734.1201
 122  826.534
 123  751.333
 124  752.116
 125  815.6897
 126  778.3218
 127  677.9202
 128  675.843
 129  754.4567
 130  842.9028
 131  780.8054
 132  836.7137
 133  746.0809
 134  689.497
 135  657.4227
 136  723.2704
 137  758.4053
 138  763.7106
 139  788.9189
 140  813.2602
 141  756.6039
 142  745.1734
 143  782.4056
 144  817.6871
 145  710.9334
 146  700.9867
 147  862.5273
 148  844.5551
 149  734.307
 150  818.2542
 151  861.8054
 152  795.7573
 153  822.5046
 154  837.7039
 155  743.1879
 156  676.8425
 157  704.8427
 158  753.5701
 159  758.5112
 160  670.7486
 161  729.9001
 162  683.1791
 163  589.55
 164  667.1639
 165  750.6008
 166  793.3828
 167  757.63
 168  795.0419
 169  721.2678
 170  673.4031
 171  784.2213
 172  781.035
 173  718.1573
 174  643.4499
 175  698.2739
 176  732.0626
 177  655.5339
 178  650.8672
 179  723.1292
 180  707.5063
 181  685.7841
 182  709.3615
 183  738.8152
 184  704.7239
 185  673.8263
 186  776.2355
 187  772.4617
 188  694.519
 189  705.3801
 190  624.582
 191  669.1214
 192  647.1399
 193  684.0069
 194  695.7275
 195  713.6727
 196  797.9645
 197  782.1022
 198  810.0931
 199  644.8124
 200  771.9573
 201  788.407
 202  786.7791
 203  719.3259
 204  733.924
 205  731.8214
 206  696.0583
 207  716.8791
 208  727.7106
 209  735.1002
 210  784.1625
 211  874.0798
 212  834.7637
 213  772.6564
 214  785.2718
 215  815.7913
 216  823.6628
 217  712.784
 218  749.4377
 219  831.9807
 220  811.9547
 221  754.7987
 222  756.7958
 223  822.665
 224  793.6166
 225  788.1345
 226  812.2971
 227  783.46
 228  758.0634
 229  657.233
 230  697.2865
 231  719.1984
 232  783.8871
 233  763.2593
 234  665.3082
 235  662.2307
 236  751.6614
 237  770.156
 238  661.4292
 239  740.1216
 240  855.4472
 241  780.4686
 242  561.7258
 243  710.4914
 244  806.0777
 245  726.686
 246  669.8897
 247  772.8746
 248  811.3725
 249  736.2003
 250  675.4011
 251  701.0894
 252  808.6995
 253  793.6188
 254  874.3674
 255  762.1525
 256  667.2192
 257  754.5063
 258  803.5846
 259  799.386
 260  687.1364
 261  759.833
 262  766.1332
 263  718.5204
 264  711.9434
 265  832.2103
 266  774.1305
 267  720.6826
 268  756.5245
 269  810.212
 270  809.4877
 271  827.939
 272  864.9668
 273  857.4603
 274  831.5404
 275  774.1486
 276  771.5948
 277  808.0629
 278  822.975
 279  765.6711
 280  786.9474
 281  778.3824
 282  771.7474
 283  768.3652
 284  748.4675
 285  788.1097
 286  870.3145
 287  889.6528
 288  780.054
 289  704.1884
 290  747.154
 291  759.0032
 292  817.9923
 293  852.5097
 294  855.4268
 295  884.6362
 296  806.1696
 297  848.3724
 298  775.868
 299  755.5515
 300  772.0986
 301  864.7109
 302  818.4146
 303  652.2762
 304  608.3446
 305  680.1468
 306  719.5925
 307  705.2941
 308  832.5671
 309  863.8922
 310  860.9273
 311  776.9216
 312  820.2972
 313  698.6676
 314  766.4898
 315  787.7736
 316  764.0349
 317  705.27
 318  743.5478
 319  764.1138
 320  694.5349
 321  702.1706
 322  804.0198
 323  711.298
 324  650.9954
 325  694.0406
 326  729.3624
 327  748.6913
 328  718.7945
 329  788.4402
 330  894.2628
 331  775.8732
 332  690.6814
 333  810.476
 334  809.6118
 335  774.8294
 336  851.7781
 337  857.878
 338  861.5527
 339  871.2881
 340  837.4545
 341  756.4182
 342  706.3458
 343  865.132
 344  919.7632
 345  797.8263
 346  737.6567
 347  786.4224
 348  701.5186
 349  670.345
 350  724.7333
 351  877.8649
 352  771.4279
 353  738.0078
 354  785.4106
 355  880.248
 356  824.8347
 357  824.3032
 358  919.4116
 359  896.2501
 360  832.7108
 361  764.2635
 362  812.8665
 363  859.1042
 364  814.7084
 365  802.986
 366  832.8441
 367  732.7838
 368  745.3853
 369  808.1511
 370  781.3381
 371  803.7568
 372  854.6718
 373  876.1864
 374  790.4346
 375  712.0209
 376  803.8122
 377  850.213
 378  827.8722
 379  829.0784
 380  790.2467
 381  840.2532
 382  781.2222
 383  838.9078
 384  805.0455
 385  714.0743
 386  827.059
 387  902.2131
 388  812.7465
 389  720.9036
 390  722.2383
 391  781.6856
 392  751.3863
 393  825.0284
 394  764.1243
 395  709.3628
 396  742.5279
 397  731.2286
 398  800.6484
 399  787.9127
 400  777.8891
 401  838.624
 402  847.344
 403  778.4644
 404  759.8322
 405  762.6537
 406  650.5148
 407  717.5906
 408  874.9555
 409  947.3637
 410  818.0411
 411  756.5388
 412  793.9743
 413  768.8132
 414  749.9577
 415  709.8779
 416  663.9139
 417  661.2325
 418  681.6804
 419  729.1727
 420  652.8824
 421  600.8085
 422  710.6898
 423  851.3257
 424  813.0989
 425  781.8066
 426  870.3124
 427  759.0455
 428  718.1987
 429  728.5047
 430  819.3129
 431  800.6406
 432  728.2078
 433  738.5098
 434  812.9832
 435  705.4222
 436  615.047
 437  772.0823
 438  818.7316
 439  723.9965
 440  764.2151
 441  836.3636
 442  791.818
 443  701.3268
 444  766.3779
 445  785.6376
 446  713.1474
 447  794.3967
 448  833.5345
 449  723.2455
 450  724.2208
 451  826.3386
 452  805.6807
 453  827.5155
 454  840.554
 455  839.853
 456  765.5829
 457  725.9186
 458  890.1166
 459  933.6698
 460  752.1319
 461  769.0149
 462  858.3841
 463  891.3772
 464  909.0178
 465  980.6542
 466  972.9476
 467  859.4728
 468  776.8999
 469  797.8936
 470  781.5436
 471  749.6495
 472  773.0612
 473  817.0128
 474  776.3699
 475  812.8454
 476  917.8694
 477  908.2964
 478  906.3934
 479  868.6924
 480  889.1031
 481  855.7067
 482  860.4629
 483  899.3396
 484  872.3293
 485  817.3881
 486  840.3809
 487  795.0908
 488  843.2646
 489  762.4378
 490  737.8074
 491  786.1232
 492  840.2877
 493  738.4853
 494  772.4309
 495  787.1674
 496  674.4481
 497  724.54
 498  795.473
 499  859.5261
 500  822.8761
 501  827.2349
 502  800.1329
 503  650.8594
 504  751.4929
 505  847.5296
 506  775.7865
 507  738.7873
 508  789.3565
 509  858.1893
 510  784.3066
 511  705.6405
