# Input file       =  1195171863.10669_cleaned.dat
# Candidate        =  PSR_0332+5434
# Telescope        =  AR
# Epoch_topo       =  58077.007894753355
# Epoch_bary       =  N/A
# T_sample         =  0.002
# Data Folded      =  7340032
# Data Avg         =  0.0538775324022636
# Data StdDev      =  1.00018415710507 
# Profile Bins     =  512
# Profile Avg      =  772.388844324755 
# Profile StdDev   =  119.755086066126 
# Reduced chi-sqr  =  0.605
# Prob(Noise)      <  1   (~0.0 sigma)
# P_topo (ms)      =  714.514637527608  +/- 3.04e-05
# P'_topo (s/s)    =  -0                +/- 1.6e-11
# P''_topo (s/s^2) =  0                 +/- 7.08e-15
# P_bary (ms)      =  N/A
# P'_bary (s/s)    =  N/A
# P''_bary (s/s^2) =  N/A
# P_orb (s)        =  N/A
# asin(i)/c (s)    =  N/A
# eccentricity     =  N/A
# w (rad)          =  N/A
# T_peri           =  N/A
######################################################
   0  993.2202
   1  884.7259
   2  795.9681
   3  791.8354
   4  802.7496
   5  738.7399
   6  762.3319
   7  821.4574
   8  781.6873
   9  789.8455
  10  888.3333
  11  929.4579
  12  899.5334
  13  883.2515
  14  877.6825
  15  871.1743
  16  847.6608
  17  891.8339
  18  888.6784
  19  831.7238
  20  836.3701
  21  795.5602
  22  839.1111
  23  790.2471
  24  731.2817
  25  762.1545
  26  852.8358
  27  764.7272
  28  734.8422
  29  808.2634
  30  705.6348
  31  695.3758
  32  772.5621
  33  847.3997
  34  840.2863
  35  821.2859
  36  816.6623
  37  692.1268
  38  686.0593
  39  861.738
  40  788.8291
  41  744.7894
  42  761.2902
  43  846.8497
  44  826.155
  45  704.2861
  46  738.0563
  47  699.0463
  48  641.0613
  49  781.8847
  50  800.2889
  51  686.0908
  52  643.6634
  53  698.5707
  54  762.1449
  55  687.9902
  56  816.7073
  57  863.8712
  58  866.9513
  59  814.1105
  60  743.2206
  61  806.9828
  62  776.0297
  63  701.4349
  64  766.7416
  65  841.2812
  66  806.2613
  67  698.1508
  68  823.0626
  69  799.0056
  70  630.8536
  71  720.9186
  72  778.3946
  73  753.6239
  74  741.9219
  75  761.7837
  76  800.9137
  77  720.8428
  78  744.8451
  79  682.7365
  80  670.7783
  81  699.9249
  82  780.6617
  83  787.4266
  84  700.1458
  85  659.3543
  86  716.7394
  87  619.8574
  88  729.4908
  89  757.5025
  90  744.0386
  91  748.8594
  92  827.5483
  93  912.8719
  94  773.9557
  95  781.8342
  96  839.2335
  97  833.7626
  98  762.7604
  99  776.8226
 100  799.3038
 101  810.845
 102  681.4379
 103  705.394
 104  802.4232
 105  838.8715
 106  866.1368
 107  837.2952
 108  871.4832
 109  775.8257
 110  662.7291
 111  792.2585
 112  824.287
 113  825.0435
 114  919.015
 115  981.9174
 116  954.2993
 117  829.392
 118  880.2454
 119  743.5801
 120  703.3578
 121  804.8643
 122  796.595
 123  798.7477
 124  835.7509
 125  865.3661
 126  763.2598
 127  729.6805
 128  777.2292
 129  859.9575
 130  893.3588
 131  857.3244
 132  795.9579
 133  851.5387
 134  815.8983
 135  760.2718
 136  744.946
 137  747.2008
 138  647.3636
 139  650.1344
 140  742.0323
 141  710.4292
 142  687.0173
 143  724.3165
 144  734.9911
 145  753.5865
 146  801.5882
 147  786.2419
 148  741.4218
 149  743.5638
 150  789.1248
 151  782.1689
 152  769.4536
 153  708.0776
 154  713.1558
 155  743.3832
 156  728.2676
 157  744.9952
 158  765.2999
 159  778.4055
 160  776.7899
 161  800.8842
 162  766.8499
 163  727.972
 164  751.1536
 165  729.7122
 166  675.9631
 167  716.5499
 168  819.5292
 169  773.6598
 170  742.2568
 171  805.6197
 172  806.1885
 173  690.0986
 174  669.9724
 175  725.902
 176  839.5202
 177  783.8818
 178  819.8596
 179  789.7152
 180  699.9163
 181  661.4899
 182  692.8487
 183  766.0152
 184  742.9712
 185  791.0208
 186  802.2997
 187  797.5058
 188  728.4875
 189  773.7989
 190  803.2036
 191  768.5253
 192  653.7533
 193  825.7305
 194  876.9224
 195  760.7797
 196  771.9086
 197  871.8677
 198  811.919
 199  812.9735
 200  826.4784
 201  786.284
 202  674.4574
 203  716.5535
 204  717.7955
 205  779.3282
 206  677.6971
 207  723.4768
 208  699.8677
 209  607.4307
 210  633.0519
 211  740.3669
 212  784.7784
 213  762.4722
 214  783.4142
 215  765.5797
 216  653.4756
 217  755.2422
 218  804.5818
 219  733.4737
 220  658.3603
 221  662.665
 222  745.2396
 223  682.4424
 224  642.9861
 225  693.8128
 226  737.808
 227  662.5491
 228  720.3622
 229  712.0034
 230  748.6044
 231  640.7684
 232  757.0133
 233  795.2263
 234  713.6865
 235  702.8002
 236  633.947
 237  662.1796
 238  656.1711
 239  667.1115
 240  691.6296
 241  703.3415
 242  789.9626
 243  770.9017
 244  822.5112
 245  678.7112
 246  730.735
 247  784.2375
 248  802.7688
 249  727.7565
 250  746.121
 251  718.5497
 252  711.186
 253  696.8967
 254  740.9987
 255  718.9711
 256  764.91
 257  855.7831
 258  865.0313
 259  771.9141
 260  785.5738
 261  796.3874
 262  842.9141
 263  738.9101
 264  716.9301
 265  827.2286
 266  814.2554
 267  789.1415
 268  731.7521
 269  823.6439
 270  785.6571
 271  799.5415
 272  795.5701
 273  811.0942
 274  750.3138
 275  694.3882
 276  672.615
 277  727.0837
 278  749.2463
 279  786.4591
 280  698.8962
 281  643.4321
 282  727.4108
 283  759.4907
 284  721.0577
 285  677.6503
 286  842.6675
 287  823.2398
 288  603.0072
 289  650.757
 290  794.5272
 291  766.2469
 292  649.0931
 293  759.3895
 294  804.1983
 295  772.0856
 296  689.1663
 297  677.015
 298  780.9771
 299  792.5401
 300  849.8383
 301  830.0582
 302  655.425
 303  734.191
 304  792.593
 305  826.7805
 306  701.8209
 307  727.3749
 308  782.0756
 309  734.6706
 310  689.0254
 311  804.4918
 312  810.4949
 313  720.2995
 314  745.8988
 315  798.0302
 316  814.4156
 317  820.3897
 318  849.8765
 319  871.4009
 320  829.1688
 321  790.1169
 322  762.277
 323  813.7217
 324  815.67
 325  782.1127
 326  759.7213
 327  803.1167
 328  769.3671
 329  773.2581
 330  748.9558
 331  774.7153
 332  847.2763
 333  888.5947
 334  812.3062
 335  706.8463
 336  752.0311
 337  749.0689
 338  799.907
 339  845.3008
 340  860.9028
 341  873.2579
 342  828.1362
 343  833.0219
 344  813.2428
 345  748.4758
 346  750.8248
 347  850.5636
 348  845.1492
 349  713.9533
 350  589.1227
 351  664.5077
 352  710.5226
 353  703.5128
 354  789.4935
 355  869.3442
 356  874.8444
 357  781.4457
 358  830.6701
 359  720.0585
 360  732.6301
 361  789.08
 362  778.2066
 363  729.0447
 364  711.1044
 365  764.6852
 366  730.5167
 367  671.9326
 368  801.3642
 369  727.3182
 370  684.0009
 371  656.2189
 372  727.4545
 373  741.4686
 374  735.9389
 375  755.4331
 376  871.6137
 377  815.5494
 378  701.7318
 379  775.3494
 380  823.3984
 381  774.3093
 382  833.592
 383  878.1136
 384  838.0749
 385  874.6657
 386  846.7925
 387  793.3504
 388  700.3131
 389  802.4299
 390  938.3163
 391  826.5999
 392  740.1838
 393  773.9649
 394  751.0015
 395  660.9528
 396  690.1801
 397  849.5986
 398  816.2269
 399  737.9842
 400  757.0187
 401  863.5468
 402  854.6566
 403  800.8358
 404  906.9689
 405  904.3187
 406  859.5283
 407  776.0657
 408  784.0986
 409  860.199
 410  834.3878
 411  793.6599
 412  828.2949
 413  768.4373
 414  730.6773
 415  797.3055
 416  773.8231
 417  806.0237
 418  836.8732
 419  880.9034
 420  820.3388
 421  712.6663
 422  781.7969
 423  827.8107
 424  841.9869
 425  830.2021
 426  814.8401
 427  812.5261
 428  791.9064
 429  821.585
 430  840.8023
 431  727.0338
 432  774.8472
 433  906.0173
 434  839.6052
 435  759.6875
 436  692.0182
 437  789.5836
 438  743.1763
 439  795.7998
 440  804.5547
 441  705.9158
 442  756.6907
 443  713.9542
 444  780.3203
 445  805.7679
 446  769.3756
 447  822.5548
 448  852.2664
 449  809.4952
 450  737.1229
 451  775.6052
 452  675.4748
 453  690.8052
 454  822.7167
 455  947.2126
 456  870.1067
 457  755.9358
 458  778.1417
 459  780.8221
 460  756.0405
 461  736.611
 462  657.2493
 463  670.7869
 464  646.3549
 465  753.6511
 466  655.4045
 467  625.1331
 468  652.55
 469  840.0027
 470  824.1857
 471  771.9434
 472  856.1176
 473  808.2514
 474  711.5632
 475  716.0815
 476  816.4901
 477  797.511
 478  774.8114
 479  690.5435
 480  824.9679
 481  742.9602
 482  609.0835
 483  722.2769
 484  824.2468
 485  757.1187
 486  723.9946
 487  840.4171
 488  814.4014
 489  715.6448
 490  739.9344
 491  787.4891
 492  740.9984
 493  738.6611
 494  845.5811
 495  752.933
 496  713.0541
 497  800.2225
 498  814.1771
 499  829.9934
 500  833.7767
 501  845.6804
 502  777.3893
 503  732.1057
 504  839.1548
 505  952.2966
 506  796.5585
 507  735.6926
 508  851.4704
 509  874.4109
 510  899.0291
 511  963.1993
