# Input file       =  1195430911.110719_cleaned.dat
# Candidate        =  PSR_0332+5434
# Telescope        =  AR
# Epoch_topo       =  58080.006135540731
# Epoch_bary       =  N/A
# T_sample         =  0.002
# Data Folded      =  7340032
# Data Avg         =  0.107136683683226
# Data StdDev      =  1.0001067169442  
# Profile Bins     =  512
# Profile Avg      =  1535.88671091914 
# Profile StdDev   =  119.745813920528 
# Reduced chi-sqr  =  0.669
# Prob(Noise)      <  1   (~0.0 sigma)
# P_topo (ms)      =  714.517748496665  +/- 2.39e-05
# P'_topo (s/s)    =  -0                +/- 1.26e-11
# P''_topo (s/s^2) =  0                 +/- 5.56e-15
# P_bary (ms)      =  N/A
# P'_bary (s/s)    =  N/A
# P''_bary (s/s^2) =  N/A
# P_orb (s)        =  N/A
# asin(i)/c (s)    =  N/A
# eccentricity     =  N/A
# w (rad)          =  N/A
# T_peri           =  N/A
######################################################
   0  1717.776
   1  1719.229
   2  1552.709
   3  1521.073
   4  1590.789
   5  1697.271
   6  1600.255
   7  1490.663
   8  1503.777
   9  1468.851
  10  1491.744
  11  1488.229
  12  1623.866
  13  1532.608
  14  1474.99
  15  1577.591
  16  1636.105
  17  1486.124
  18  1503.961
  19  1609.302
  20  1559.926
  21  1513.013
  22  1607.761
  23  1576.36
  24  1486.201
  25  1540.819
  26  1553.454
  27  1646.678
  28  1629.054
  29  1627.446
  30  1634.282
  31  1558.251
  32  1486.794
  33  1603.181
  34  1580.068
  35  1613.008
  36  1568.035
  37  1608.492
  38  1534.326
  39  1497.813
  40  1494.024
  41  1570.632
  42  1573.574
  43  1540.953
  44  1628.308
  45  1523.197
  46  1516.877
  47  1579.623
  48  1590.993
  49  1601.927
  50  1625.713
  51  1675.798
  52  1626.597
  53  1445.226
  54  1444.76
  55  1510.697
  56  1416.337
  57  1591.396
  58  1597.833
  59  1554.754
  60  1479.207
  61  1487.42
  62  1571.422
  63  1465.724
  64  1521.915
  65  1557.453
  66  1566.199
  67  1533.691
  68  1465.415
  69  1510.848
  70  1525.847
  71  1444.798
  72  1484.062
  73  1473.721
  74  1419.597
  75  1366.782
  76  1491.75
  77  1553.173
  78  1504.29
  79  1549.509
  80  1660.96
  81  1516.854
  82  1559.671
  83  1601.203
  84  1564.86
  85  1509.925
  86  1539.339
  87  1640.349
  88  1642.641
  89  1683.511
  90  1666.945
  91  1561.329
  92  1572.029
  93  1469.102
  94  1530.636
  95  1585.216
  96  1487.994
  97  1596.551
  98  1589.195
  99  1556.828
 100  1567.53
 101  1655.883
 102  1552.035
 103  1445.216
 104  1564.675
 105  1639.639
 106  1589.418
 107  1537.35
 108  1512.508
 109  1557.114
 110  1437.868
 111  1588.183
 112  1704.88
 113  1607.257
 114  1527.609
 115  1491.041
 116  1505.764
 117  1489.226
 118  1499.803
 119  1597.647
 120  1573.105
 121  1558.169
 122  1528.261
 123  1575.439
 124  1481.33
 125  1519.988
 126  1500.597
 127  1447.482
 128  1420.08
 129  1454.999
 130  1488.128
 131  1435.622
 132  1375.665
 133  1442.223
 134  1559.71
 135  1462.617
 136  1432.212
 137  1466.29
 138  1454.851
 139  1387.386
 140  1448.121
 141  1591.439
 142  1512.654
 143  1519.443
 144  1544.822
 145  1608.11
 146  1514.211
 147  1523.595
 148  1641.34
 149  1471.706
 150  1452.976
 151  1518.839
 152  1545.977
 153  1423.619
 154  1471.747
 155  1544.585
 156  1511.492
 157  1473.688
 158  1498.965
 159  1649.201
 160  1573.929
 161  1609.839
 162  1613.94
 163  1576.722
 164  1538.445
 165  1547.521
 166  1621.405
 167  1519.461
 168  1481.997
 169  1647.117
 170  1581.214
 171  1468.154
 172  1535.462
 173  1603.213
 174  1594.518
 175  1534.582
 176  1657.677
 177  1628.65
 178  1507.188
 179  1431.639
 180  1491.108
 181  1463.695
 182  1427.415
 183  1537.647
 184  1588.054
 185  1453.89
 186  1470.62
 187  1543.592
 188  1628.926
 189  1566.634
 190  1505.033
 191  1569.498
 192  1429.161
 193  1433.333
 194  1582.729
 195  1541.948
 196  1474.031
 197  1496.152
 198  1482.614
 199  1463.193
 200  1491.514
 201  1530.543
 202  1563.616
 203  1601.277
 204  1590.988
 205  1598.911
 206  1500.464
 207  1412.533
 208  1444.453
 209  1515.361
 210  1471.446
 211  1535.325
 212  1546.512
 213  1519.123
 214  1382.028
 215  1434.325
 216  1500.368
 217  1442.663
 218  1428.466
 219  1505.25
 220  1534.9
 221  1467.33
 222  1517.511
 223  1570.49
 224  1503.656
 225  1465.183
 226  1457.821
 227  1548.18
 228  1478.936
 229  1404.311
 230  1408.92
 231  1498.845
 232  1477.099
 233  1491.442
 234  1574.345
 235  1470.952
 236  1469.315
 237  1572.394
 238  1624.522
 239  1450.082
 240  1551.317
 241  1601.955
 242  1535.829
 243  1542.924
 244  1656.809
 245  1640.815
 246  1574.529
 247  1520.618
 248  1505.103
 249  1550.225
 250  1452.532
 251  1679.066
 252  1736.836
 253  1537.172
 254  1431.641
 255  1525.44
 256  1518.947
 257  1444.026
 258  1551.302
 259  1674.981
 260  1517.586
 261  1493.932
 262  1602.711
 263  1632.519
 264  1471.044
 265  1411.657
 266  1479.753
 267  1473.644
 268  1504.718
 269  1539.157
 270  1590.883
 271  1438.13
 272  1478.333
 273  1463.756
 274  1451.241
 275  1465.863
 276  1524.348
 277  1552.332
 278  1453.279
 279  1483.25
 280  1490.247
 281  1475.749
 282  1446.084
 283  1451.234
 284  1498.395
 285  1448.482
 286  1460.311
 287  1477.29
 288  1464.302
 289  1457.143
 290  1496.424
 291  1560.739
 292  1575.619
 293  1447.386
 294  1490.327
 295  1528.866
 296  1399.475
 297  1451.415
 298  1620.585
 299  1620.883
 300  1591.488
 301  1597.994
 302  1577.725
 303  1555.419
 304  1493.938
 305  1637.117
 306  1584.635
 307  1467.002
 308  1538.226
 309  1542.237
 310  1477.177
 311  1534.6
 312  1651.351
 313  1543.996
 314  1463.51
 315  1433.565
 316  1517.776
 317  1513.486
 318  1587.851
 319  1569.59
 320  1565.436
 321  1544.741
 322  1514.898
 323  1517.342
 324  1564.761
 325  1506.432
 326  1521.079
 327  1587.846
 328  1487.484
 329  1522.767
 330  1492.421
 331  1519.259
 332  1525.905
 333  1560.484
 334  1634.834
 335  1579.875
 336  1512.868
 337  1558.547
 338  1646.792
 339  1636.504
 340  1576.785
 341  1634.609
 342  1619.563
 343  1533.864
 344  1673.797
 345  1615.622
 346  1672.728
 347  1635.889
 348  1762.579
 349  1699.626
 350  1511.799
 351  1568.271
 352  1582.337
 353  1497.214
 354  1562.283
 355  1588.783
 356  1573.498
 357  1623.431
 358  1573.716
 359  1545.036
 360  1551.749
 361  1507.251
 362  1599.584
 363  1684.464
 364  1505.024
 365  1378.424
 366  1490.097
 367  1515.646
 368  1531.873
 369  1623.566
 370  1685.362
 371  1603.838
 372  1486.832
 373  1578.707
 374  1521.919
 375  1460.409
 376  1496.049
 377  1530.04
 378  1536.621
 379  1461.878
 380  1509.433
 381  1603.682
 382  1593.042
 383  1437.625
 384  1465.957
 385  1454.055
 386  1493.751
 387  1617.365
 388  1522.881
 389  1423.232
 390  1368.942
 391  1489.079
 392  1455.256
 393  1401.475
 394  1484.799
 395  1561.409
 396  1513.396
 397  1466.153
 398  1543.26
 399  1492.676
 400  1400.184
 401  1466.106
 402  1595.05
 403  1527.511
 404  1452.543
 405  1537.829
 406  1614.924
 407  1579.466
 408  1499.562
 409  1573.46
 410  1629.538
 411  1527.223
 412  1574.136
 413  1635.038
 414  1595.811
 415  1553.22
 416  1554.654
 417  1556.69
 418  1467.171
 419  1533.129
 420  1636.954
 421  1492.329
 422  1456.69
 423  1508.306
 424  1487.819
 425  1543.209
 426  1544.526
 427  1685.955
 428  1632.907
 429  1516.649
 430  1652.115
 431  1547.863
 432  1460.62
 433  1527.798
 434  1608.646
 435  1653.895
 436  1541.477
 437  1435.288
 438  1579.56
 439  1574.592
 440  1597.016
 441  1620.083
 442  1516.002
 443  1509.756
 444  1625.98
 445  1674.143
 446  1584.202
 447  1421.789
 448  1578.724
 449  1567.022
 450  1402.634
 451  1398.034
 452  1526.438
 453  1617.481
 454  1568.849
 455  1490.005
 456  1533.881
 457  1464.564
 458  1503.862
 459  1558.451
 460  1561.938
 461  1532.757
 462  1504.86
 463  1533.482
 464  1483.288
 465  1380.42
 466  1426.508
 467  1541.095
 468  1495.372
 469  1484.577
 470  1559.306
 471  1529.096
 472  1549.381
 473  1603.73
 474  1593.731
 475  1478.188
 476  1388.679
 477  1430.587
 478  1510.377
 479  1533.98
 480  1633.988
 481  1651.521
 482  1587.842
 483  1519.491
 484  1553.119
 485  1577.905
 486  1556.722
 487  1616.281
 488  1642.899
 489  1582.556
 490  1525.957
 491  1446.306
 492  1553.174
 493  1511.941
 494  1445.577
 495  1472.421
 496  1518.951
 497  1469.725
 498  1488.206
 499  1499.032
 500  1530.91
 501  1595.801
 502  1637.271
 503  1696.891
 504  1610.796
 505  1578.921
 506  1532.214
 507  1384.237
 508  1494.002
 509  1639.017
 510  1700.069
 511  1727.45
