# Input file       =  1195430911.110719_cleaned.dat
# Candidate        =  PSR_0332+5434
# Telescope        =  AR
# Epoch_topo       =  58080.006135540731
# Epoch_bary       =  N/A
# T_sample         =  0.002
# Data Folded      =  7340032
# Data Avg         =  1.44131858333068 
# Data StdDev      =  13.1668125695102 
# Profile Bins     =  1024
# Profile Avg      =  10331.3210239588 
# Profile StdDev   =  1114.75557178635 
# Reduced chi-sqr  =  0.539
# Prob(Noise)      <  1   (~0.0 sigma)
# P_topo (ms)      =  714.517749752996  +/- 2.47e-05
# P'_topo (s/s)    =  -0                +/- 1.3e-11
# P''_topo (s/s^2) =  0                 +/- 5.75e-15
# P_bary (ms)      =  N/A
# P'_bary (s/s)    =  N/A
# P''_bary (s/s^2) =  N/A
# P_orb (s)        =  N/A
# asin(i)/c (s)    =  N/A
# eccentricity     =  N/A
# w (rad)          =  N/A
# T_peri           =  N/A
######################################################
   0  9780.622
   1  10352.81
   2  10391.8
   3  10290.37
   4  10083.97
   5  10112.83
   6  10123.53
   7  10208.56
   8  10254.82
   9  10554.39
  10  10644.86
  11  10247.1
  12  10566.34
  13  10317.89
  14  10435.99
  15  10626.32
  16  10804.92
  17  10919.3
  18  10214.34
  19  9840.009
  20  9921.717
  21  9627.664
  22  10017.84
  23  9972.361
  24  9883.729
  25  9790.45
  26  9530.965
  27  9885.09
  28  9976.078
  29  9955.26
  30  10411.42
  31  10482.19
  32  10318.87
  33  9841.252
  34  9367.612
  35  9335.22
  36  9481.384
  37  9617.229
  38  9903.722
  39  10112.78
  40  9708.627
  41  9828.526
  42  9391.685
  43  10192.86
  44  10300.07
  45  10547.46
  46  10432.19
  47  10093.01
  48  9955.677
  49  9938.591
  50  9666.749
  51  10244.64
  52  10539.91
  53  10592.42
  54  10319.85
  55  9931.493
  56  9949.943
  57  10081.21
  58  10050.91
  59  10377.88
  60  10163.74
  61  9830.624
  62  9648.596
  63  9624.566
  64  9646.259
  65  9541.936
  66  9586.21
  67  10386.81
  68  10650.2
  69  10684.77
  70  10212.72
  71  10090.48
  72  10396.14
  73  10595.81
  74  10718.9
  75  10460.94
  76  9779.583
  77  9772.004
  78  9977.548
  79  10233.58
  80  10491.68
  81  10908.88
  82  11120.14
  83  10484.54
  84  9866.871
  85  9796.475
  86  10501.59
  87  10876.44
  88  11141.53
  89  10420.29
  90  10396.23
  91  10211.6
  92  10575.42
  93  10821.49
  94  10617.56
  95  10862.36
  96  11058.28
  97  11007.06
  98  10790.74
  99  10525.95
 100  10707.18
 101  10603.01
 102  10276.11
 103  10481.13
 104  10376.08
 105  10176.47
 106  10364.1
 107  10593.77
 108  11556.46
 109  11567.51
 110  11164.06
 111  10880.77
 112  10038.52
 113  9646.357
 114  9551.236
 115  10143.85
 116  10671.18
 117  10707.32
 118  10358.11
 119  10509.04
 120  9875.696
 121  9882.353
 122  10457.57
 123  11028.13
 124  11377.64
 125  10932.61
 126  10306.91
 127  10184.53
 128  10008.79
 129  10678.27
 130  11142.03
 131  11207.43
 132  11122.65
 133  10481.9
 134  9979.181
 135  9761.559
 136  9346.328
 137  9706.302
 138  9815.219
 139  9894.446
 140  9825.371
 141  9646.125
 142  9807.46
 143  9988.542
 144  9944.548
 145  10467.18
 146  10482.25
 147  10094.93
 148  9675.228
 149  9702.145
 150  10050.44
 151  10023.62
 152  10025.1
 153  10142.18
 154  9744.271
 155  9647.555
 156  9788.192
 157  10103.34
 158  10449.14
 159  10627
 160  10746.12
 161  10308.94
 162  10073.59
 163  10396.32
 164  10352.41
 165  10014.82
 166  9579.513
 167  9532.126
 168  9717.151
 169  9802.808
 170  10105.75
 171  10095.39
 172  10255.67
 173  10365.77
 174  10607.91
 175  10071.67
 176  9950.936
 177  9747.55
 178  10469.21
 179  10345.31
 180  10018.52
 181  9971.002
 182  10268.68
 183  10263.53
 184  10248.03
 185  9991.527
 186  10388.92
 187  10632.51
 188  10585.25
 189  10520.45
 190  10354.23
 191  10128.04
 192  10031.12
 193  9532.838
 194  10027.6
 195  10066.8
 196  10068.42
 197  9703.974
 198  9398.972
 199  9402.862
 200  9785.528
 201  10117.9
 202  10516.95
 203  10829.75
 204  10733.49
 205  10711.52
 206  10442.75
 207  10692.91
 208  10967.74
 209  10638.59
 210  11043.08
 211  10642.7
 212  10299.35
 213  9939.357
 214  9837.017
 215  10604.74
 216  10742.09
 217  10582.29
 218  10087.42
 219  9522.689
 220  9583.886
 221  9739.899
 222  9579.966
 223  10002.83
 224  9937.316
 225  9989.104
 226  9982.482
 227  9789.384
 228  9932.738
 229  10304.99
 230  10617.54
 231  10746.92
 232  10142.06
 233  9963.833
 234  9851.36
 235  9805.871
 236  9763.554
 237  9904.623
 238  10107.86
 239  10330.55
 240  10176.11
 241  10227.55
 242  10141.73
 243  10142.93
 244  10350.78
 245  10586.36
 246  10577.62
 247  10339.91
 248  10333.85
 249  10482.45
 250  10130.35
 251  9704.501
 252  9798.451
 253  9842.963
 254  10083.79
 255  9749.34
 256  9733.108
 257  9713.825
 258  9965.74
 259  10380.94
 260  10651.03
 261  10354.12
 262  10131.52
 263  10350.51
 264  10590.1
 265  10267.16
 266  9692.727
 267  10023.56
 268  10449.23
 269  10448.92
 270  10453.17
 271  10186.56
 272  10777.7
 273  11112.75
 274  11247.69
 275  11087.16
 276  10751.57
 277  10633.44
 278  10815.75
 279  10642.01
 280  10954.78
 281  11106.11
 282  11166.51
 283  11193.41
 284  10722.11
 285  10572.79
 286  10614.74
 287  10608.1
 288  11111.55
 289  10966.52
 290  10342.45
 291  10094.48
 292  9968.534
 293  10963.01
 294  11401.92
 295  11090.88
 296  10777.43
 297  10949.57
 298  11334.47
 299  11173.58
 300  10757.87
 301  11221.98
 302  11544.83
 303  11042.63
 304  10590.4
 305  9989.916
 306  9639.011
 307  9936.023
 308  9909.825
 309  10452.14
 310  9923.325
 311  9613.659
 312  9716.803
 313  10021.24
 314  10323.59
 315  10139.84
 316  10110.97
 317  10251.68
 318  10187.09
 319  10631.17
 320  10884.51
 321  11009.67
 322  10685.44
 323  10222.54
 324  10363.1
 325  10342.58
 326  10083.62
 327  9930.198
 328  9954.447
 329  10270.84
 330  10640.5
 331  10756.82
 332  11070.68
 333  10917.1
 334  10752.3
 335  10107.54
 336  9864.288
 337  10407.93
 338  10697.76
 339  10697.41
 340  10639.5
 341  10504.82
 342  10258.96
 343  10247.54
 344  10565.85
 345  10820.43
 346  11153.43
 347  10690.25
 348  10768.92
 349  10322.82
 350  10302.55
 351  10533.93
 352  10292.37
 353  10292.71
 354  10355.29
 355  10353.24
 356  10412.85
 357  9778.249
 358  10067.98
 359  10227.26
 360  10165.28
 361  10268.59
 362  9971.765
 363  9789.619
 364  9652.576
 365  9780.317
 366  10207.17
 367  10591.41
 368  10538.37
 369  10613.86
 370  10431.68
 371  10016.07
 372  9658.39
 373  9413.066
 374  10129.14
 375  10048.03
 376  9761.664
 377  9589.339
 378  9931.586
 379  10557.62
 380  10455.46
 381  10057.2
 382  9762.312
 383  9774.574
 384  9618.019
 385  9760.831
 386  9431.475
 387  10088.21
 388  10180.92
 389  10086.67
 390  9541.233
 391  9245.428
 392  9496.749
 393  9734.391
 394  10042.78
 395  10467.36
 396  10351.97
 397  10476.46
 398  10516.98
 399  10384.8
 400  10200.89
 401  10296.88
 402  10485.37
 403  10521.36
 404  10053.9
 405  9812.578
 406  9695.4
 407  9686.232
 408  10109.96
 409  10738.97
 410  10879.22
 411  10463.67
 412  10232.39
 413  9959.613
 414  9676.107
 415  9955.922
 416  10390.36
 417  10674.71
 418  10793.93
 419  11058.54
 420  10526.21
 421  9988.609
 422  9977.214
 423  10451.34
 424  10722.87
 425  10494.81
 426  10602.51
 427  10302.99
 428  9861.974
 429  9564.022
 430  9966.862
 431  10705.03
 432  10716.24
 433  10323.96
 434  10160.37
 435  10049.77
 436  10221.87
 437  10459.9
 438  10398.32
 439  10637.32
 440  10356.26
 441  10128.34
 442  10048.97
 443  9636.523
 444  10305.39
 445  10548.27
 446  10865.25
 447  10452.67
 448  9720.708
 449  9581.232
 450  9709.765
 451  9812.433
 452  10305.76
 453  10083.48
 454  9973.171
 455  10225.54
 456  10440.67
 457  10543.19
 458  10415.14
 459  10519.33
 460  11278.52
 461  11571.73
 462  11046.23
 463  10555.17
 464  10114.07
 465  10679.93
 466  11085.13
 467  10914.26
 468  10727.42
 469  10299
 470  10258.55
 471  10336.86
 472  10207.72
 473  10654.58
 474  10729.39
 475  10727.65
 476  10864.78
 477  10846.83
 478  10324.55
 479  10135.13
 480  9934.99
 481  10500.6
 482  10436.96
 483  10560.31
 484  10743.59
 485  10667.52
 486  10520.46
 487  10450.08
 488  10513.87
 489  10431.08
 490  10214.72
 491  10004.75
 492  10098.26
 493  10392.58
 494  10839.25
 495  10832.96
 496  10428.04
 497  10582.36
 498  10327.55
 499  10254.21
 500  9691.629
 501  10071.48
 502  10378.48
 503  10471.04
 504  10280.57
 505  10140.93
 506  9668.126
 507  9683.268
 508  9661.145
 509  10113.31
 510  10265.38
 511  10656.23
 512  10825.14
 513  10998.34
 514  10723.02
 515  10322.19
 516  9708.399
 517  10005.25
 518  10465.98
 519  10312.09
 520  9835.383
 521  9596.646
 522  10005.88
 523  10453.45
 524  10470.73
 525  10801.85
 526  10542.22
 527  10260.25
 528  10236.52
 529  9823.373
 530  10142.88
 531  10036.38
 532  10312.57
 533  10184.34
 534  9727.157
 535  9601.545
 536  9301.618
 537  9131.553
 538  9888.749
 539  10403.91
 540  10400.15
 541  10010.81
 542  9633.574
 543  9707.035
 544  9567.507
 545  9808.76
 546  10457.96
 547  10684.24
 548  10293.24
 549  10450.99
 550  10444.27
 551  10591.89
 552  10360.85
 553  10388.35
 554  10307.87
 555  9870.024
 556  9602.972
 557  9680.528
 558  9423.35
 559  9778.48
 560  9852.443
 561  10425.2
 562  10355.33
 563  10436.42
 564  10262.14
 565  10918.72
 566  10651.63
 567  11147.38
 568  11107.71
 569  11212.76
 570  11137.57
 571  10695
 572  10363.39
 573  10127.85
 574  10458.76
 575  11063.72
 576  10536.05
 577  10270.05
 578  10368.46
 579  10859.55
 580  11036.71
 581  11049.57
 582  11210.81
 583  10841.78
 584  10566.81
 585  10505.66
 586  10141.4
 587  9831.101
 588  9920.296
 589  10520.15
 590  10463.95
 591  9992.191
 592  9517.352
 593  9874.924
 594  9783.692
 595  9957.86
 596  10210.22
 597  10405.54
 598  10211.14
 599  9992
 600  9879.18
 601  9898.21
 602  9830.862
 603  10207.77
 604  10207.55
 605  9863.902
 606  10013.58
 607  9804.166
 608  10247.05
 609  10462.66
 610  10773.7
 611  10909.61
 612  11343.27
 613  11016.76
 614  10694.51
 615  10170.33
 616  10586.82
 617  10719.26
 618  10463.73
 619  9822.689
 620  9335.212
 621  9646.003
 622  10053.36
 623  10173.8
 624  10907.05
 625  11150.95
 626  11203.51
 627  11254.6
 628  11322.04
 629  11092.76
 630  10861.81
 631  10767.76
 632  11302.25
 633  10746.2
 634  10111.31
 635  9847.92
 636  10118.63
 637  10706.73
 638  10666.65
 639  10953.35
 640  11113.13
 641  10710.65
 642  10457.18
 643  10392.81
 644  10100.92
 645  10180.86
 646  10222.94
 647  10260.26
 648  9752.979
 649  9817.027
 650  9785.495
 651  9913.142
 652  9545.863
 653  10082.81
 654  10321.58
 655  10125.45
 656  9994.505
 657  9994.87
 658  10147.69
 659  10233.29
 660  10429.96
 661  10965.78
 662  10810.26
 663  10499.6
 664  9904.036
 665  9944.199
 666  10287.49
 667  10642.04
 668  10708.09
 669  10693.43
 670  10371.86
 671  10239.18
 672  10291.39
 673  10380.95
 674  10634.63
 675  10726.83
 676  10769.72
 677  10387.17
 678  9904.037
 679  9792.995
 680  10156.22
 681  10538.13
 682  10737.91
 683  10722.43
 684  11135.1
 685  11148.59
 686  10881.41
 687  10470.28
 688  10490.69
 689  10857.05
 690  11024.01
 691  10338.57
 692  10132.15
 693  9937.902
 694  10366.86
 695  10791.33
 696  10941.41
 697  10796.03
 698  10323.59
 699  10527.71
 700  10827.4
 701  10723.09
 702  10446.31
 703  10608.43
 704  10757.56
 705  10924.33
 706  10435.17
 707  10324.96
 708  10563.66
 709  10629.19
 710  10943.71
 711  11080.41
 712  10890.44
 713  10930.93
 714  10565.24
 715  10649.4
 716  10890.51
 717  11005.96
 718  11362.96
 719  11133.66
 720  10473.36
 721  10111.65
 722  9983.082
 723  10397.95
 724  10644.05
 725  10432.49
 726  10594.26
 727  10337.69
 728  10567.8
 729  10797.68
 730  10775.02
 731  11110.08
 732  11171.58
 733  11127.91
 734  10859.55
 735  10127.22
 736  9948.294
 737  9881.091
 738  9967.921
 739  10371.09
 740  10143.13
 741  9759.544
 742  9786.377
 743  10173.73
 744  10573.64
 745  10585.58
 746  10631.8
 747  10775.45
 748  10456.42
 749  10312.06
 750  10216.17
 751  9987.271
 752  10148.69
 753  10490.71
 754  10619.82
 755  10134.35
 756  9749.666
 757  10185.59
 758  10495.83
 759  10399.62
 760  10377.94
 761  10488.33
 762  10613.04
 763  10574.33
 764  10432.49
 765  9917.272
 766  9851.389
 767  10187.3
 768  10744.25
 769  10584.4
 770  10475.91
 771  10046.74
 772  10126.25
 773  10286.23
 774  10368.28
 775  10287.99
 776  9929.705
 777  9683.373
 778  9751.817
 779  9699.716
 780  9798.994
 781  9965.868
 782  10274.88
 783  10649.81
 784  10458.24
 785  10154.16
 786  10136.09
 787  9887.936
 788  10548.73
 789  11055.62
 790  11099.89
 791  10853.89
 792  10600.74
 793  10656.93
 794  10862.34
 795  10881.84
 796  11221.31
 797  11327.09
 798  10837.62
 799  11008.99
 800  10591.35
 801  10590.86
 802  10300.03
 803  10363.04
 804  11013.78
 805  10935.07
 806  11077.88
 807  11050.94
 808  11025.37
 809  11396.59
 810  11530.12
 811  11509.96
 812  10975.72
 813  10727.41
 814  10709.95
 815  10551.2
 816  10117.56
 817  10374.58
 818  10357.62
 819  10546.97
 820  10453.59
 821  10178.33
 822  10089.45
 823  10462.76
 824  11034.5
 825  11177.92
 826  10606.47
 827  10450.74
 828  10337.71
 829  10450.66
 830  10432.01
 831  10821.17
 832  11260.2
 833  11377.5
 834  10670.36
 835  9798.36
 836  9667.6
 837  10097.84
 838  10781.01
 839  11082.45
 840  11030.5
 841  10958.05
 842  10633.88
 843  10605.09
 844  10344.62
 845  9937.647
 846  10424.6
 847  10470.38
 848  10548.42
 849  9915.858
 850  9513.979
 851  9653.504
 852  10011.56
 853  10877.8
 854  11156.27
 855  11059.06
 856  10923.72
 857  10821.59
 858  10483.77
 859  10195.31
 860  10226.84
 861  10603.54
 862  10428.57
 863  9712.805
 864  9706.197
 865  9927.286
 866  10214.23
 867  10454.52
 868  10665.46
 869  10742.32
 870  10100.8
 871  9984.214
 872  10075.52
 873  9645.523
 874  10035.36
 875  10433.5
 876  10702.9
 877  10550.36
 878  10003.17
 879  10088.27
 880  10548.91
 881  10459.69
 882  10426.13
 883  9938.169
 884  9525.945
 885  9483.482
 886  9589.718
 887  10014.86
 888  10173.54
 889  9890.684
 890  10529.82
 891  10268.19
 892  9906.776
 893  9490.459
 894  9423.614
 895  9766.138
 896  10132.97
 897  10111.65
 898  10344.9
 899  9784.028
 900  9684.466
 901  9545.37
 902  9372.348
 903  9698.477
 904  10022.52
 905  9960.851
 906  9815.402
 907  9720.935
 908  9487.324
 909  9745.696
 910  9773.721
 911  10449.75
 912  10494.83
 913  10148.9
 914  10151.49
 915  9808.095
 916  10338.49
 917  10492.48
 918  10582.83
 919  11122.7
 920  11046.18
 921  10854.89
 922  10305.71
 923  10114.31
 924  10540.71
 925  10843.88
 926  11432.42
 927  10853.37
 928  10285.51
 929  10102.43
 930  10218.53
 931  10314.41
 932  10263.62
 933  10307.06
 934  10541.3
 935  10148.85
 936  9615.597
 937  9484.71
 938  9679.246
 939  10057.29
 940  10181.22
 941  9931.759
 942  9915.714
 943  10009.22
 944  9946.416
 945  9867.332
 946  10040.45
 947  10960.52
 948  11418.61
 949  10733.01
 950  10394.57
 951  10101.08
 952  10755.62
 953  10778.75
 954  10649.66
 955  10523.34
 956  10362.96
 957  10244.77
 958  10272.84
 959  9991.904
 960  10532.4
 961  10790.13
 962  10729.69
 963  10617.89
 964  10131.67
 965  10161.49
 966  10236.91
 967  10526.47
 968  11364.38
 969  11400.24
 970  11077.34
 971  10446.65
 972  10138.64
 973  10308.24
 974  10580.09
 975  10585.31
 976  11101.66
 977  11066.91
 978  10778.6
 979  10482.86
 980  9973.308
 981  10557.84
 982  11105.15
 983  11134.22
 984  10634.91
 985  10021.45
 986  9966.896
 987  9932.737
 988  9579.914
 989  10024.11
 990  10178.97
 991  10238.03
 992  10084.77
 993  10045.94
 994  9815.503
 995  9839.814
 996  10321.32
 997  11055.73
 998  10838.21
 999  10078.1
1000  10069.38
1001  10247.41
1002  10195.75
1003  10297.62
1004  10545.02
1005  11240.34
1006  10964.76
1007  10710.42
1008  10471.35
1009  9853.147
1010  10150.96
1011  10330.17
1012  10626.72
1013  10121.91
1014  9793.177
1015  9877.498
1016  10021.81
1017  10260.6
1018  10433.66
1019  10280.17
1020  10340.54
1021  9780.767
1022  9648.88
1023  9480.491
