# Input file       =  1196951893.114437_cleaned.dat
# Candidate        =  PSR_0332+5434
# Telescope        =  AR
# Epoch_topo       =  58097.610093917094
# Epoch_bary       =  N/A
# T_sample         =  0.002
# Data Folded      =  7208960
# Data Avg         =  0.703012117586861
# Data StdDev      =  7.28825099465994 
# Profile Bins     =  512
# Profile Avg      =  9898.37350621147 
# Profile StdDev   =  864.817856002729 
# Reduced chi-sqr  =  0.558
# Prob(Noise)      <  1   (~0.0 sigma)
# P_topo (ms)      =  714.535506084406  +/- 0.00112
# P'_topo (s/s)    =  -0                +/- 6e-10
# P''_topo (s/s^2) =  0                 +/- 2.7e-13
# P_bary (ms)      =  N/A
# P'_bary (s/s)    =  N/A
# P''_bary (s/s^2) =  N/A
# P_orb (s)        =  N/A
# asin(i)/c (s)    =  N/A
# eccentricity     =  N/A
# w (rad)          =  N/A
# T_peri           =  N/A
######################################################
   0  9896.326
   1  9827.882
   2  9548.277
   3  9701.216
   4  9160.551
   5  9677.397
   6  9674.018
   7  9402.914
   8  9544.015
   9  9892.943
  10  9630.42
  11  9218.36
  12  9459.006
  13  9997.688
  14  9924.089
  15  10025.34
  16  10095.19
  17  9587.457
  18  9100.879
  19  9422.006
  20  9330.506
  21  9569.181
  22  9478.622
  23  9938.935
  24  9277.615
  25  9726.788
  26  9742.907
  27  9673.658
  28  9822.151
  29  9607.685
  30  9796.637
  31  9573.862
  32  9407.559
  33  9243.117
  34  9256.678
  35  9488.453
  36  9462.028
  37  9541.837
  38  9463.485
  39  10343.66
  40  9918.763
  41  10091.96
  42  9549.814
  43  9457.732
  44  9344.358
  45  9632.313
  46  10261.99
  47  10399.94
  48  10696.17
  49  10858.43
  50  10575.9
  51  10462.78
  52  10954.49
  53  11040.61
  54  10386.91
  55  9996.165
  56  9541.205
  57  10170.5
  58  10162.55
  59  10380.32
  60  10179.67
  61  9237.405
  62  9249.761
  63  9144.277
  64  9367.486
  65  9934.843
  66  10525.75
  67  10653.65
  68  10070.16
  69  8761.31
  70  8749.396
  71  9305.424
  72  9390.883
  73  9920.338
  74  10283.38
  75  9994.911
  76  9708.584
  77  9604.668
  78  9553.969
  79  9804.665
  80  9858.974
  81  9788.722
  82  9956.648
  83  9785.707
  84  9453.998
  85  9353.151
  86  9673.234
  87  9817.419
  88  9896.767
  89  9913.391
  90  9540.506
  91  9728.307
  92  10167.96
  93  9579.27
  94  9574.561
  95  10347.47
  96  10414.04
  97  10454.95
  98  10012.37
  99  10417.97
 100  10234.02
 101  9300.094
 102  9672.536
 103  9171.557
 104  9243.895
 105  8907.841
 106  9927.691
 107  10426.19
 108  9838.89
 109  8697.243
 110  9473.953
 111  10401.7
 112  10397.58
 113  10492.71
 114  10110.32
 115  10098.21
 116  9930.221
 117  9467.654
 118  9581.46
 119  9223.93
 120  9664.567
 121  9761.612
 122  10102.96
 123  9486.46
 124  9055.716
 125  8985.032
 126  8815.787
 127  9535.977
 128  9991.492
 129  10478.58
 130  10086.48
 131  10212.7
 132  10226.06
 133  9572.98
 134  9552.713
 135  9873.88
 136  9947.595
 137  9564.72
 138  9948.22
 139  10023.21
 140  9891.91
 141  9243.906
 142  9692.688
 143  9410.62
 144  9195.138
 145  9478.309
 146  10063.94
 147  10184.01
 148  9860.919
 149  10309.24
 150  10418.82
 151  10023.26
 152  9948.984
 153  10194.77
 154  10166.82
 155  9053.631
 156  8609.832
 157  9712.036
 158  10060.43
 159  10319.68
 160  10839.79
 161  10667.71
 162  9990.484
 163  9252.048
 164  9720.023
 165  10295.26
 166  10360.54
 167  10499.43
 168  10437.38
 169  10018.65
 170  9863.06
 171  10186.65
 172  10527.62
 173  9971.388
 174  9878.145
 175  10041.46
 176  9946.219
 177  9206.341
 178  9426.986
 179  9653.189
 180  10005.49
 181  9776.343
 182  9710.627
 183  9613.671
 184  9869.536
 185  9799.829
 186  9520.13
 187  9815.286
 188  9866.926
 189  9693.555
 190  9510.542
 191  9430.627
 192  9912.179
 193  9896.712
 194  10045.47
 195  10602.63
 196  10923.96
 197  10445.54
 198  9962.764
 199  9902.821
 200  10374.77
 201  10254.33
 202  10151.9
 203  10084.78
 204  9638.246
 205  9752.886
 206  10608.4
 207  10776.84
 208  10432.34
 209  9433.82
 210  9599.203
 211  9885.045
 212  10368.73
 213  10202.84
 214  10579.4
 215  10240.71
 216  10351.49
 217  10006.58
 218  10289.53
 219  10186.86
 220  9855.958
 221  10136.48
 222  10180.42
 223  10030.05
 224  10020.93
 225  9423.323
 226  9151.013
 227  9347.577
 228  9834.1
 229  10135.15
 230  10584.25
 231  10533.64
 232  10437.17
 233  10179.96
 234  9427.137
 235  10036.86
 236  9844.012
 237  9789.854
 238  10135.47
 239  10484.37
 240  9598.092
 241  9331.095
 242  9474.849
 243  10056.66
 244  9846.215
 245  9591.947
 246  9421.962
 247  8783.634
 248  9474.657
 249  10017.84
 250  9848.704
 251  9859.481
 252  9556.294
 253  9725.444
 254  9111.751
 255  9341.92
 256  9331.658
 257  9230.419
 258  9323.033
 259  10034.03
 260  9874.199
 261  9594.29
 262  10185.8
 263  10269.8
 264  9725.39
 265  9558.186
 266  9259.674
 267  9776.827
 268  9982.772
 269  9751.14
 270  9407.79
 271  9405.249
 272  9484.514
 273  9883.76
 274  10194.33
 275  10062.71
 276  9271.477
 277  9344.119
 278  10017.61
 279  10372.33
 280  10717
 281  10796.66
 282  10487.92
 283  9957.49
 284  10329.47
 285  10115.55
 286  10377.19
 287  10106.82
 288  9898.969
 289  9432.178
 290  9610.021
 291  9148.38
 292  9462.386
 293  10280.94
 294  9862.426
 295  9350.208
 296  9385.456
 297  9446.699
 298  9407.112
 299  9289.735
 300  9267.312
 301  9028.192
 302  9366.834
 303  9326.661
 304  9673.42
 305  9462.646
 306  9479.843
 307  10318.96
 308  10200.93
 309  9405.798
 310  9390.582
 311  10165.59
 312  10015.04
 313  10140.66
 314  10357.98
 315  10562.07
 316  10138.49
 317  9856.943
 318  10209.61
 319  10187.53
 320  11028.87
 321  10568.2
 322  10402.92
 323  10455.25
 324  10222.71
 325  10083.94
 326  10185.28
 327  10576.56
 328  10645.32
 329  10619.6
 330  10470.33
 331  10460.05
 332  10558.24
 333  10414.87
 334  10741.44
 335  11280.48
 336  11820.5
 337  10363.59
 338  10366.37
 339  9883.13
 340  9947.419
 341  9746.27
 342  10223.6
 343  10709.81
 344  10942
 345  10565.65
 346  9991.632
 347  10048.43
 348  9580.14
 349  10183.84
 350  10303.49
 351  9741.579
 352  9440.909
 353  9650.347
 354  9990.288
 355  9910.956
 356  10091.59
 357  10344.25
 358  10062.7
 359  9939.27
 360  10401.05
 361  10284.83
 362  10821.09
 363  10600.22
 364  10773.18
 365  10545.24
 366  10203.29
 367  10527.94
 368  9949.955
 369  9577.346
 370  10230.7
 371  10347.56
 372  9925.478
 373  9909.339
 374  10018.45
 375  10182.91
 376  10888.38
 377  9958.545
 378  9629.347
 379  10229.01
 380  10157.36
 381  9158.797
 382  9765.634
 383  10133.6
 384  9269.82
 385  9339.529
 386  9477.585
 387  9403.855
 388  9373.259
 389  9440.621
 390  9722.889
 391  9801.215
 392  9820.2
 393  9389.233
 394  9391.466
 395  9336.616
 396  10211.02
 397  10143.88
 398  10251.7
 399  11004.27
 400  10278
 401  10174.8
 402  9336.594
 403  9330.83
 404  9691.673
 405  9984.372
 406  10118.14
 407  9730.008
 408  10167.47
 409  10432.36
 410  10257.42
 411  10510.43
 412  10677.29
 413  10409.17
 414  9724.937
 415  10062.01
 416  10949.37
 417  10677.91
 418  10608.75
 419  10792.63
 420  10017.49
 421  9618.671
 422  9307.686
 423  9863.997
 424  10105.92
 425  9798.177
 426  10190.72
 427  9955.969
 428  9629.543
 429  9826.148
 430  9405.967
 431  9655.677
 432  10200.22
 433  10135.9
 434  10303.17
 435  10139.38
 436  10686.14
 437  10435.92
 438  10336.85
 439  9639.435
 440  8917.283
 441  9751.985
 442  9944.018
 443  10567.12
 444  9972.49
 445  10464.87
 446  9974.409
 447  9894.978
 448  9104.733
 449  9228.171
 450  9564.771
 451  9894.878
 452  10791.96
 453  10746.26
 454  10032.64
 455  9830.631
 456  9779.349
 457  9693.696
 458  9666.598
 459  10304.41
 460  9701.505
 461  10042.25
 462  9692.703
 463  9187.804
 464  9572.062
 465  9648.14
 466  10183.54
 467  9886.506
 468  9815.955
 469  10040.69
 470  10115.07
 471  9564.761
 472  8938.177
 473  9419.221
 474  9738.562
 475  10232.91
 476  9476.131
 477  9735.496
 478  9551.374
 479  10463.84
 480  9672.734
 481  9438.088
 482  9306.931
 483  8722.91
 484  9353.649
 485  9548.038
 486  10152.13
 487  9362.945
 488  9338.854
 489  9259.774
 490  9837.566
 491  10177.48
 492  9484.789
 493  9881.049
 494  9484.761
 495  9683.097
 496  10011.8
 497  10545.04
 498  10401.11
 499  10090.48
 500  10030.21
 501  9310.089
 502  9570.471
 503  9825.69
 504  9857.964
 505  9872.925
 506  9627.985
 507  9866.416
 508  10675.73
 509  10176.45
 510  9997.402
 511  9759.05
