# Input file       =  1196951893.114437_cleaned.dat
# Candidate        =  PSR_0332+5434
# Telescope        =  AR
# Epoch_topo       =  58097.610093917094
# Epoch_bary       =  N/A
# T_sample         =  0.002
# Data Folded      =  7208960
# Data Avg         =  0.0901575051831015
# Data StdDev      =  1.00031747597575 
# Profile Bins     =  512
# Profile Avg      =  1269.41254569448 
# Profile StdDev   =  118.696847231147 
# Reduced chi-sqr  =  0.720
# Prob(Noise)      <  1   (~0.0 sigma)
# P_topo (ms)      =  714.535506084406  +/- 0.000538
# P'_topo (s/s)    =  -0                +/- 2.89e-10
# P''_topo (s/s^2) =  0                 +/- 1.3e-13
# P_bary (ms)      =  N/A
# P'_bary (s/s)    =  N/A
# P''_bary (s/s^2) =  N/A
# P_orb (s)        =  N/A
# asin(i)/c (s)    =  N/A
# eccentricity     =  N/A
# w (rad)          =  N/A
# T_peri           =  N/A
######################################################
   0  1262.543
   1  1202.289
   2  1162.331
   3  1238.009
   4  1124.408
   5  1203.147
   6  1213.221
   7  1150.003
   8  1171.567
   9  1243.293
  10  1256.7
  11  1134.36
  12  1189.01
  13  1288.176
  14  1230.552
  15  1201.091
  16  1212.733
  17  1198.961
  18  1274.211
  19  1325.334
  20  1284.035
  21  1214.64
  22  1172.354
  23  1224.025
  24  1189.652
  25  1270.522
  26  1254.88
  27  1273.351
  28  1317.027
  29  1249.862
  30  1240.197
  31  1249.769
  32  1259.104
  33  1209.623
  34  1163.745
  35  1236.438
  36  1228.871
  37  1300.126
  38  1321.319
  39  1363.151
  40  1226.559
  41  1321.18
  42  1332.589
  43  1333.734
  44  1249.789
  45  1301.438
  46  1348.627
  47  1360.811
  48  1413.813
  49  1444.423
  50  1441.237
  51  1321.341
  52  1406.046
  53  1423.039
  54  1380.633
  55  1296.932
  56  1177.655
  57  1280.591
  58  1321.655
  59  1315.204
  60  1280.733
  61  1192.034
  62  1201.214
  63  1177.496
  64  1236.217
  65  1319.976
  66  1348.632
  67  1286.479
  68  1282.111
  69  1112.99
  70  1123.38
  71  1232.164
  72  1232.453
  73  1267.222
  74  1308.19
  75  1279.484
  76  1215.378
  77  1233.28
  78  1202.117
  79  1281.155
  80  1278.514
  81  1261.912
  82  1308.716
  83  1248.53
  84  1188.825
  85  1156.412
  86  1242.629
  87  1281.729
  88  1239.388
  89  1238.307
  90  1197.786
  91  1280.566
  92  1292.625
  93  1271.198
  94  1253.194
  95  1341.172
  96  1388.304
  97  1292.024
  98  1260.768
  99  1341.297
 100  1326.453
 101  1170.603
 102  1264.172
 103  1197.847
 104  1208.357
 105  1128.79
 106  1262.365
 107  1398.547
 108  1231.384
 109  1093.771
 110  1278.494
 111  1391.118
 112  1381.451
 113  1377.994
 114  1293.222
 115  1309.135
 116  1291.388
 117  1277.093
 118  1297.649
 119  1234.719
 120  1237.55
 121  1218.801
 122  1217.142
 123  1170.727
 124  1130.636
 125  1114.105
 126  1095.814
 127  1201.193
 128  1251.137
 129  1225.174
 130  1233.477
 131  1275.306
 132  1336.93
 133  1195.282
 134  1175.695
 135  1284.725
 136  1336.851
 137  1305.827
 138  1306.057
 139  1293.759
 140  1307.627
 141  1255.332
 142  1352.764
 143  1265.148
 144  1292.543
 145  1256.376
 146  1313.958
 147  1388.419
 148  1347.234
 149  1380.907
 150  1441.739
 151  1435.5
 152  1327.193
 153  1313.98
 154  1356.914
 155  1230.91
 156  1143.603
 157  1329.253
 158  1361.355
 159  1394.427
 160  1420.856
 161  1368.732
 162  1295.965
 163  1198.601
 164  1216.752
 165  1272.1
 166  1381.36
 167  1430.058
 168  1410.821
 169  1339.89
 170  1252.985
 171  1370.875
 172  1483.621
 173  1372.123
 174  1370.708
 175  1334.542
 176  1325.533
 177  1211.855
 178  1266.302
 179  1282.842
 180  1245.081
 181  1170.179
 182  1173.963
 183  1167.578
 184  1287.507
 185  1260.679
 186  1215.432
 187  1254.051
 188  1304.55
 189  1245.217
 190  1244.309
 191  1231.501
 192  1243.88
 193  1276.243
 194  1330.256
 195  1369.829
 196  1407.98
 197  1342.344
 198  1246.262
 199  1224.109
 200  1271.958
 201  1301.19
 202  1303.315
 203  1276.153
 204  1237.243
 205  1267.995
 206  1358.46
 207  1406.737
 208  1377.999
 209  1303.86
 210  1317.506
 211  1289.696
 212  1369.035
 213  1319.951
 214  1355.177
 215  1342.326
 216  1353.612
 217  1285.823
 218  1432.693
 219  1378.231
 220  1285.154
 221  1348.246
 222  1328.347
 223  1282.075
 224  1337.883
 225  1234.574
 226  1208.924
 227  1241.36
 228  1310.06
 229  1313.788
 230  1386.359
 231  1395.8
 232  1403.218
 233  1327.461
 234  1238.802
 235  1285.52
 236  1236.609
 237  1221.166
 238  1353.659
 239  1423.896
 240  1275.426
 241  1201.973
 242  1210.734
 243  1306.464
 244  1193.675
 245  1197.938
 246  1201.163
 247  1086.032
 248  1210.724
 249  1313.393
 250  1298.115
 251  1259.965
 252  1225.778
 253  1202.818
 254  1133.425
 255  1210.798
 256  1121.246
 257  1104.496
 258  1200.815
 259  1257.24
 260  1277.602
 261  1285.014
 262  1351.574
 263  1296.812
 264  1246.349
 265  1213.457
 266  1137.608
 267  1277.699
 268  1302.839
 269  1250.438
 270  1246.746
 271  1219.728
 272  1227.312
 273  1346.511
 274  1367.846
 275  1333.61
 276  1197.36
 277  1184.346
 278  1269.67
 279  1240.51
 280  1317.158
 281  1308.29
 282  1342.147
 283  1323.713
 284  1386.063
 285  1319.684
 286  1336.156
 287  1264.993
 288  1207.646
 289  1139.824
 290  1243.854
 291  1190.765
 292  1265.739
 293  1356.273
 294  1287.865
 295  1156.324
 296  1112.552
 297  1237.783
 298  1212.26
 299  1127.561
 300  1187.655
 301  1181.206
 302  1218.374
 303  1219.158
 304  1209.404
 305  1212.441
 306  1113.012
 307  1191.532
 308  1237.07
 309  1211.881
 310  1210.897
 311  1305.996
 312  1232.314
 313  1304.049
 314  1317.236
 315  1338.274
 316  1278.436
 317  1178.524
 318  1318.634
 319  1310.179
 320  1376.205
 321  1366.968
 322  1320.229
 323  1313.465
 324  1287.02
 325  1190.34
 326  1288.461
 327  1406.864
 328  1356.762
 329  1279.679
 330  1273.823
 331  1269.484
 332  1269.146
 333  1298.546
 334  1320.269
 335  1428.507
 336  1427.14
 337  1245.41
 338  1225.282
 339  1193.62
 340  1278.769
 341  1260.758
 342  1295.949
 343  1391.675
 344  1426.225
 345  1307.799
 346  1159.468
 347  1238.559
 348  1232.582
 349  1273.069
 350  1323.005
 351  1254.447
 352  1245.155
 353  1269.798
 354  1278.348
 355  1231.864
 356  1299.854
 357  1346.286
 358  1224.64
 359  1258.953
 360  1309.145
 361  1275.915
 362  1318.523
 363  1319.456
 364  1324.466
 365  1272.656
 366  1289.74
 367  1379.66
 368  1346.503
 369  1276.864
 370  1297.912
 371  1301.673
 372  1222.711
 373  1228.475
 374  1259.139
 375  1258.976
 376  1374.888
 377  1249.417
 378  1215.89
 379  1314.926
 380  1266.13
 381  1163.451
 382  1268.755
 383  1301.987
 384  1168.15
 385  1191.634
 386  1212.665
 387  1202.369
 388  1221.468
 389  1222.364
 390  1237.46
 391  1317.619
 392  1288.476
 393  1192.356
 394  1216.251
 395  1222.858
 396  1301.079
 397  1327.238
 398  1304.861
 399  1388.789
 400  1326.411
 401  1296.404
 402  1137.67
 403  1123.653
 404  1193.336
 405  1263.873
 406  1331.937
 407  1199.089
 408  1224.526
 409  1268.453
 410  1255.597
 411  1300.557
 412  1308.868
 413  1294.14
 414  1204.887
 415  1260.592
 416  1367.723
 417  1278.791
 418  1275.127
 419  1339.434
 420  1187.085
 421  1200.278
 422  1188.995
 423  1270.832
 424  1364.963
 425  1307.124
 426  1314.982
 427  1257.259
 428  1210.273
 429  1296.173
 430  1236.179
 431  1237.402
 432  1319.803
 433  1345.408
 434  1305.972
 435  1259.741
 436  1340.997
 437  1323.91
 438  1283.966
 439  1260.585
 440  1179.066
 441  1310.07
 442  1322.253
 443  1333.991
 444  1151.067
 445  1238.387
 446  1297.848
 447  1300.572
 448  1160.86
 449  1203.703
 450  1286.857
 451  1335.113
 452  1409.409
 453  1424.607
 454  1264.141
 455  1286.872
 456  1316.621
 457  1271.462
 458  1279.227
 459  1243.672
 460  1097.263
 461  1214.943
 462  1213.297
 463  1134.768
 464  1183.349
 465  1222.251
 466  1235.282
 467  1190.398
 468  1229.751
 469  1336.562
 470  1370.771
 471  1250.357
 472  1094.231
 473  1168.547
 474  1239.179
 475  1288.833
 476  1162.19
 477  1163.013
 478  1180.618
 479  1360.502
 480  1266.729
 481  1234.549
 482  1223.216
 483  1072.319
 484  1209.052
 485  1235.104
 486  1265.446
 487  1248.859
 488  1208.83
 489  1155.688
 490  1278.205
 491  1403.826
 492  1240.398
 493  1294.109
 494  1245.12
 495  1251.517
 496  1277.405
 497  1379.109
 498  1350.065
 499  1251.596
 500  1235.213
 501  1144.647
 502  1215.325
 503  1245.382
 504  1187.192
 505  1178.832
 506  1164.915
 507  1194.342
 508  1414.262
 509  1363.146
 510  1289.521
 511  1261.136
