# Input file       =  1196951893.114437_cleaned.dat
# Candidate        =  PSR_0332+5434
# Telescope        =  AR
# Epoch_topo       =  58097.610093917094
# Epoch_bary       =  N/A
# T_sample         =  0.002
# Data Folded      =  7208960
# Data Avg         =  0.703012117586861
# Data StdDev      =  7.28825099465994 
# Profile Bins     =  1024
# Profile Avg      =  4949.18675310573 
# Profile StdDev   =  611.518570470741 
# Reduced chi-sqr  =  0.531
# Prob(Noise)      <  1   (~0.0 sigma)
# P_topo (ms)      =  714.535506084406  +/- 0.00112
# P'_topo (s/s)    =  -0                +/- 6e-10
# P''_topo (s/s^2) =  0                 +/- 2.69e-13
# P_bary (ms)      =  N/A
# P'_bary (s/s)    =  N/A
# P''_bary (s/s^2) =  N/A
# P_orb (s)        =  N/A
# asin(i)/c (s)    =  N/A
# eccentricity     =  N/A
# w (rad)          =  N/A
# T_peri           =  N/A
######################################################
   0  5044.241
   1  4977.018
   2  4907.725
   3  4883.578
   4  5159.868
   5  5056.376
   6  5143.068
   7  5425.115
   8  5470.313
   9  5049.801
  10  4854.592
  11  4741.414
  12  4919.835
  13  5010.872
  14  5237.243
  15  5201.333
  16  4872.059
  17  4573.363
  18  4588.481
  19  4816.962
  20  5011.796
  21  5117.311
  22  4978.161
  23  4695.994
  24  4552.064
  25  4623.123
  26  4714.451
  27  4709.254
  28  4783.338
  29  4711.805
  30  4676.839
  31  4668.555
  32  4714.059
  33  4711.538
  34  4726.032
  35  4820.488
  36  4943.575
  37  4886.329
  38  4892.963
  39  4910.893
  40  4896.839
  41  4713.696
  42  4651.864
  43  4749.97
  44  4652.524
  45  4634.505
  46  4721.628
  47  5041.56
  48  5225.29
  49  5078.65
  50  5034.233
  51  5006.581
  52  5293.218
  53  5517.974
  54  5499.706
  55  5243.863
  56  4967.676
  57  5091.978
  58  5073.353
  59  4735.996
  60  4544.168
  61  4552.409
  62  4843.28
  63  4792.172
  64  4892.184
  65  4987.097
  66  5005.401
  67  5113.709
  68  5002.531
  69  4902.796
  70  4805.487
  71  4975.66
  72  5272.181
  73  5305.884
  74  5084.606
  75  5118.876
  76  5164.27
  77  5306.621
  78  5187.804
  79  5278.63
  80  5439.588
  81  5295.147
  82  5049.098
  83  4859.016
  84  4857.742
  85  4894.263
  86  5234.389
  87  5466.632
  88  5484.098
  89  5345.546
  90  5322.454
  91  5296.157
  92  5308.914
  93  5356.049
  94  5429.438
  95  5088.246
  96  4866.201
  97  4858.563
  98  4728.206
  99  4662.101
 100  4667.856
 101  4900.755
 102  4996.178
 103  5001.61
 104  5116.822
 105  4943.265
 106  4840.391
 107  4987.466
 108  5240.767
 109  5081.226
 110  4798.619
 111  4712.354
 112  4966.529
 113  4987.716
 114  4800.75
 115  4699.9
 116  4681.038
 117  4783.945
 118  4953.658
 119  5112.41
 120  5071.294
 121  5033.792
 122  5141.104
 123  5295.933
 124  4970.053
 125  4963.515
 126  5211.799
 127  5444.971
 128  5188.233
 129  5139.726
 130  5366.208
 131  5270.846
 132  4999.804
 133  4852.928
 134  4730.267
 135  4405.923
 136  4513.497
 137  4868.17
 138  4916.292
 139  4864.836
 140  5160.609
 141  5417.581
 142  5091.17
 143  4877.635
 144  5130.9
 145  5283.421
 146  5133.274
 147  4968.93
 148  5039.39
 149  5066.397
 150  4766.696
 151  4578.289
 152  4507.012
 153  4635.867
 154  4621.647
 155  4779.029
 156  4792.533
 157  4896.13
 158  5063.761
 159  5331.33
 160  5481.358
 161  5393.333
 162  5336.859
 163  5104.678
 164  4860.357
 165  4921.952
 166  4929.313
 167  4946.934
 168  4805.628
 169  4814.725
 170  4889.507
 171  4744.083
 172  4957.501
 173  5258.024
 174  5029.858
 175  4854.453
 176  4852.549
 177  5108.946
 178  4905.502
 179  4779.145
 180  4898.941
 181  4641.853
 182  4512.984
 183  4710.837
 184  4928.251
 185  4838.245
 186  4794.983
 187  5054.881
 188  5140.597
 189  4959.897
 190  4906.057
 191  4903.677
 192  4925.263
 193  4915.248
 194  5171.252
 195  5082.1
 196  4992.727
 197  4747.329
 198  4795.6
 199  4496.737
 200  4390.107
 201  4586.694
 202  4900.414
 203  4840.424
 204  4906.019
 205  5109.885
 206  5124.354
 207  4713.062
 208  4760.757
 209  4906.923
 210  4812.362
 211  4772.775
 212  4817.685
 213  5300.805
 214  5158.356
 215  4837.382
 216  4783.226
 217  4700.92
 218  4748.787
 219  4683.91
 220  4620.116
 221  4411.323
 222  4263.906
 223  4593.766
 224  4789.177
 225  4769.351
 226  4812.104
 227  5067.55
 228  5098.308
 229  4730.757
 230  4593.142
 231  4665.115
 232  4686.439
 233  4683.482
 234  4582.924
 235  4911.433
 236  4964.298
 237  5133.574
 238  5034.164
 239  4778.272
 240  4681.174
 241  4855.292
 242  5043.848
 243  4824.173
 244  4606.477
 245  4736.28
 246  5013.072
 247  4952.256
 248  5059.318
 249  5190.812
 250  5391.61
 251  5245.136
 252  5145.447
 253  5024.053
 254  5005.994
 255  4953.222
 256  5099.218
 257  4745.612
 258  4500.704
 259  4678.28
 260  4961.142
 261  4996.943
 262  4798.269
 263  4926.265
 264  4947.709
 265  4895.096
 266  4980.512
 267  4799.507
 268  4831.717
 269  4813.928
 270  5119.885
 271  5478.636
 272  5158.19
 273  5132.712
 274  5041.688
 275  5041.347
 276  4904.317
 277  4762.827
 278  5029.846
 279  4965.749
 280  4920.458
 281  5001.802
 282  4820.143
 283  4722.861
 284  4838.216
 285  4920.189
 286  4722.184
 287  4414.262
 288  4781.597
 289  4896.565
 290  4772.747
 291  4737.276
 292  4964.908
 293  4785.73
 294  4569.851
 295  4639.309
 296  4964.812
 297  4943.037
 298  4918.522
 299  4827.961
 300  4779.53
 301  4609.518
 302  4594.928
 303  4754.592
 304  4750.893
 305  4938.236
 306  5096.331
 307  5027.807
 308  4848.929
 309  4869.388
 310  5206.178
 311  5103.312
 312  4956.15
 313  4862.337
 314  4667.898
 315  4567.605
 316  4531.127
 317  4687.567
 318  4749.542
 319  4567.615
 320  4792.801
 321  4823.019
 322  4713.015
 323  4663.84
 324  4883.604
 325  5103.331
 326  4774.741
 327  4521.149
 328  4800.709
 329  4896.865
 330  4809.547
 331  4801.534
 332  4957.098
 333  4842.285
 334  4821.392
 335  4878.966
 336  4948.388
 337  4815.565
 338  4798.066
 339  4969.532
 340  4794.287
 341  4786.343
 342  4799.611
 343  4740.638
 344  4631.273
 345  4526.012
 346  4763.645
 347  4678.485
 348  4541.424
 349  4653.542
 350  4874.192
 351  4789.988
 352  4623.371
 353  4716.103
 354  4858.18
 355  4662.877
 356  4828.438
 357  5143.086
 358  5218.589
 359  4963.284
 360  4944.133
 361  5034.781
 362  5043.135
 363  4754.516
 364  4773.292
 365  4688.897
 366  4764.491
 367  4612.917
 368  4739.931
 369  4746.32
 370  4912.575
 371  5109.289
 372  5193.943
 373  5232.213
 374  5147.488
 375  5307.213
 376  5432.947
 377  5452.195
 378  5391.709
 379  5314.908
 380  5256.988
 381  5212.006
 382  5245.799
 383  5452.862
 384  5532.815
 385  5542.875
 386  5488.567
 387  5163.386
 388  5188.98
 389  5001.765
 390  4965.398
 391  4721.982
 392  4826.455
 393  5084.553
 394  5090.233
 395  5045.876
 396  5123.533
 397  5232.303
 398  5162.105
 399  5168.532
 400  4958.991
 401  4658.229
 402  4530.676
 403  4537.569
 404  4752.004
 405  4554.074
 406  4561.589
 407  4702.177
 408  4695.662
 409  5013.454
 410  4968.692
 411  5243.845
 412  5308.601
 413  5303.628
 414  5344.948
 415  5167.183
 416  4821.916
 417  4475.466
 418  4233.718
 419  4421.928
 420  4342.394
 421  4603.13
 422  4742.232
 423  4703.908
 424  4699.42
 425  4840.191
 426  5134.965
 427  5152.641
 428  5131.162
 429  5100.574
 430  4836.89
 431  4884.979
 432  4831.997
 433  4863.099
 434  4718.396
 435  4670.145
 436  4917.946
 437  4910.14
 438  4877.048
 439  4878.048
 440  5016.765
 441  4940.034
 442  4827.5
 443  4915.302
 444  5060.896
 445  4950.186
 446  4784.03
 447  4718.763
 448  4721.381
 449  4569.571
 450  4824.309
 451  4855.838
 452  4799.269
 453  4763.138
 454  5117.512
 455  5005.148
 456  4838.869
 457  4872.07
 458  5074.756
 459  4887.593
 460  4579.96
 461  4780.733
 462  5032.318
 463  5118.22
 464  5011.925
 465  4848.835
 466  4725.082
 467  4738.023
 468  4872.045
 469  5186.711
 470  5162.487
 471  5147.943
 472  5296.3
 473  5258.66
 474  5155.39
 475  4941.057
 476  5110.095
 477  5248.443
 478  5163.851
 479  5266.51
 480  4909.901
 481  4622.586
 482  4656.777
 483  4835.196
 484  4849.801
 485  4601.56
 486  4528.143
 487  4690.213
 488  4545.985
 489  4374.143
 490  4578.106
 491  4889.056
 492  5084.209
 493  5139.073
 494  5303.313
 495  5112.088
 496  4633.919
 497  4357.502
 498  4340.211
 499  4637.325
 500  4924.243
 501  5269.279
 502  5132.998
 503  5176.493
 504  5223.573
 505  5303.398
 506  5170.155
 507  5033.812
 508  5077.129
 509  5106.954
 510  4978.837
 511  4962.736
 512  4941.608
 513  4757.584
 514  4692.255
 515  4764.062
 516  4828.125
 517  4640.303
 518  4587.079
 519  4856.989
 520  4822.312
 521  4871.02
 522  4907.485
 523  5067.572
 524  5032.196
 525  4808.328
 526  4643.363
 527  4630.548
 528  4402.684
 529  4568.968
 530  4390.92
 531  4383.139
 532  4444.454
 533  4602.738
 534  5014.287
 535  4953.038
 536  5047.718
 537  5296.559
 538  5182.057
 539  5180.673
 540  4860.928
 541  5068.84
 542  5211.541
 543  5200.746
 544  4996.667
 545  4867.783
 546  4665.346
 547  4782.847
 548  4788.374
 549  4933.801
 550  4952.397
 551  4951.093
 552  5004.172
 553  4774.22
 554  4758.404
 555  4997.246
 556  4977.089
 557  4974.146
 558  5049.771
 559  5035.554
 560  4791.989
 561  4516.196
 562  4790.35
 563  4883.848
 564  4778.352
 565  4714.62
 566  4680.28
 567  4673.644
 568  4490.102
 569  4668.591
 570  4875.039
 571  5036.449
 572  5043.648
 573  5099.72
 574  5095.608
 575  4922.272
 576  4930.155
 577  5089.298
 578  5259.445
 579  5243.846
 580  5152.167
 581  5097.623
 582  4888.074
 583  4880.345
 584  5121.491
 585  5104.486
 586  5047.677
 587  5056.994
 588  5115.378
 589  4765.345
 590  4156.002
 591  4170.542
 592  4535.085
 593  4787.051
 594  4983.227
 595  5035.25
 596  5020.685
 597  5115.03
 598  5239.57
 599  5472.369
 600  5347.946
 601  5279.176
 602  5402.989
 603  5173.129
 604  4713.971
 605  4628.353
 606  4652.392
 607  4894.686
 608  4850.301
 609  5104.44
 610  5205.113
 611  5161.164
 612  5236.792
 613  5241.729
 614  5251.742
 615  5273.789
 616  5122.185
 617  5126.785
 618  4846.683
 619  4860.157
 620  5049.497
 621  5040.484
 622  5157.337
 623  5226.865
 624  5306.352
 625  5044.784
 626  4904.223
 627  4905.937
 628  4951.777
 629  4906.254
 630  5177.781
 631  5110.08
 632  4760.649
 633  4557.356
 634  4652.814
 635  4767.109
 636  4673.475
 637  4706.698
 638  4987.385
 639  5010.409
 640  4977.846
 641  4871.196
 642  4904.287
 643  4855.409
 644  4854.232
 645  4770.518
 646  4843.401
 647  4867.383
 648  5025.521
 649  4934.205
 650  4823.441
 651  4726.131
 652  4806.198
 653  4821.685
 654  5010.894
 655  4929.408
 656  4933.435
 657  4875.991
 658  4787.812
 659  4794.301
 660  4727.214
 661  4706.172
 662  4734.091
 663  4899.98
 664  5043.209
 665  5020.546
 666  4848.224
 667  5078.704
 668  4982.396
 669  5234.155
 670  5442.849
 671  5475.838
 672  5413.506
 673  5232.718
 674  5200.418
 675  5044.488
 676  4856.053
 677  4910.966
 678  5040.395
 679  5181.31
 680  5197.31
 681  5134.252
 682  5112.087
 683  5094.315
 684  5046.281
 685  5072.986
 686  4989.592
 687  4816.556
 688  4809.748
 689  4791.446
 690  5022.495
 691  5211.556
 692  5449.458
 693  5436.642
 694  5307.291
 695  5313.926
 696  5049.844
 697  4748.527
 698  4660.441
 699  4790.228
 700  4839.759
 701  4851.925
 702  5080.342
 703  5216.186
 704  5129.133
 705  4976.988
 706  5272.711
 707  5342.606
 708  5196.091
 709  5033.501
 710  5243.279
 711  5277.576
 712  5021.617
 713  4949.586
 714  5089.742
 715  5153.5
 716  5117.235
 717  5079.514
 718  5106.137
 719  4978.381
 720  4850.278
 721  5041.887
 722  5123.564
 723  5081.105
 724  5094.636
 725  5014.35
 726  5015.07
 727  5007.589
 728  5001.162
 729  4826.085
 730  4544.818
 731  4572.807
 732  4589.977
 733  4690.667
 734  4685.553
 735  4893.415
 736  4958.098
 737  5005.618
 738  5164.566
 739  5210.271
 740  5398.992
 741  5280.87
 742  5262.291
 743  5243.19
 744  5144.609
 745  5181.409
 746  4954.462
 747  4710.409
 748  4702.601
 749  4872.766
 750  5238.29
 751  5012.704
 752  4772.229
 753  4925.894
 754  4856.044
 755  5029.894
 756  5150.67
 757  5289.861
 758  5158.275
 759  4778.626
 760  4826.062
 761  4670.286
 762  4619.466
 763  4651.182
 764  4860.729
 765  4966.68
 766  5122.41
 767  4941.575
 768  4873.201
 769  4773.549
 770  4813.909
 771  4874.187
 772  4489.986
 773  4407.631
 774  4382.583
 775  4631.246
 776  4926.187
 777  4986.123
 778  5032.172
 779  4860.859
 780  4995.546
 781  4979.681
 782  4839.126
 783  4754.561
 784  4799.215
 785  4916.258
 786  4793.999
 787  4596.353
 788  4479.702
 789  4568.597
 790  4838.929
 791  4659.681
 792  4621.928
 793  4571.917
 794  4663.296
 795  4595.13
 796  4753.026
 797  4975.748
 798  5097.553
 799  4892.842
 800  4966.275
 801  4752.911
 802  4858.417
 803  5070.195
 804  5137.467
 805  5248.619
 806  4965.037
 807  4875.429
 808  4839.237
 809  4753.542
 810  4818.715
 811  4540.327
 812  4730.281
 813  4837.786
 814  4951.167
 815  5068.726
 816  4896.889
 817  4919.779
 818  4803.764
 819  4729.335
 820  4692.797
 821  4728.93
 822  4657.719
 823  4710.382
 824  4803.54
 825  4956.492
 826  4926.308
 827  5046.365
 828  5191.93
 829  5149.888
 830  4836.829
 831  4687.658
 832  4589.188
 833  4685.665
 834  4672.751
 835  4971.637
 836  5116.264
 837  5253.652
 838  5107.843
 839  5348.612
 840  5420.263
 841  5443.96
 842  5311.795
 843  5296.595
 844  5160.528
 845  4942.43
 846  5032.857
 847  5141.512
 848  5169.267
 849  5052.77
 850  5090.072
 851  5206.577
 852  5134.019
 853  5006.669
 854  5131.695
 855  5089.41
 856  4709.28
 857  4655.646
 858  4841.491
 859  4900.091
 860  4667.373
 861  4548.187
 862  4598.755
 863  4699.057
 864  4829.758
 865  5208.945
 866  5058.735
 867  4994.437
 868  4811.543
 869  4711.963
 870  4624.143
 871  4645.483
 872  4791.797
 873  4812.955
 874  4593.992
 875  4680.106
 876  4763.479
 877  4636.315
 878  4619.453
 879  4632.089
 880  4618.765
 881  4572.315
 882  4452.508
 883  4684.879
 884  4695.232
 885  4650.079
 886  4699.377
 887  4816.506
 888  4890.685
 889  4734.024
 890  4695.452
 891  4745.343
 892  4750.257
 893  5082.885
 894  5299.017
 895  5188.276
 896  4946.893
 897  4711.58
 898  4675.434
 899  4599.112
 900  4821.136
 901  5085.049
 902  5125.148
 903  5061.118
 904  4910.703
 905  5020.366
 906  5168.927
 907  5158.217
 908  5207.144
 909  5272.593
 910  5266.329
 911  5155.134
 912  4934.221
 913  4894.95
 914  5004.232
 915  5127.464
 916  5058.403
 917  5072.434
 918  5167.855
 919  5581.054
 920  5453.624
 921  5326.562
 922  5214.72
 923  5211.271
 924  5196.313
 925  5199.866
 926  5274.493
 927  5197.295
 928  4994.31
 929  5035.031
 930  5044.416
 931  5120.437
 932  5080.178
 933  5244.935
 934  5335.743
 935  5331.817
 936  5343.698
 937  5287.629
 938  5322.252
 939  5261.514
 940  5180.304
 941  5281.017
 942  5179.545
 943  5280.985
 944  5290.263
 945  5204.626
 946  5204.563
 947  5294.142
 948  5517.124
 949  5592.097
 950  5714.211
 951  5998.715
 952  5762.654
 953  5217.924
 954  5065.68
 955  5102.849
 956  5284.462
 957  4866.777
 958  5018.315
 959  4955.679
 960  4969.533
 961  4815.039
 962  4951.434
 963  5079.262
 964  5169.823
 965  5265.48
 966  5495.675
 967  5491.577
 968  5409.221
 969  5302.206
 970  5258.536
 971  5020.73
 972  4925.698
 973  5006.36
 974  5065.707
 975  4840.248
 976  4696.571
 977  5019.83
 978  5228.609
 979  5202.521
 980  5069.061
 981  4921.317
 982  4787.907
 983  4696.631
 984  4740.184
 985  4852.744
 986  4813.878
 987  4964.863
 988  5048.865
 989  5026.443
 990  4857.638
 991  4968.038
 992  5189.429
 993  5228.203
 994  5073.603
 995  5074.321
 996  4980.5
 997  4874.631
 998  5098.123
 999  5232.171
1000  5160.168
1001  5117.01
1002  5201.486
1003  5476.874
1004  5342.543
1005  5294.034
1006  5294.943
1007  5353.444
1008  5420.503
1009  5339.685
1010  5180.144
1011  5086.24
1012  5109.989
1013  5290.69
1014  5231.86
1015  5076.331
1016  4838.716
1017  4806.449
1018  4784.286
1019  5042.058
1020  5241.669
1021  5308.362
1022  4970.518
1023  4926.388
