# Input file       =  1198158626.106533_cleaned.dat
# Candidate        =  PSR_0332+5434
# Telescope        =  AR
# Epoch_topo       =  58111.576910955242
# Epoch_bary       =  N/A
# T_sample         =  0.002
# Data Folded      =  7471104
# Data Avg         =  0.0369981825850552
# Data StdDev      =  1.00039229960193 
# Profile Bins     =  512
# Profile Avg      =  539.901400811215 
# Profile StdDev   =  120.84473971703  
# Reduced chi-sqr  =  0.847
# Prob(Noise)      <  0.995   (~0.0 sigma)
# P_topo (ms)      =  714.549156213518  +/- 5.85e-05
# P'_topo (s/s)    =  -0                +/- 3.04e-11
# P''_topo (s/s^2) =  0                 +/- 1.32e-14
# P_bary (ms)      =  N/A
# P'_bary (s/s)    =  N/A
# P''_bary (s/s^2) =  N/A
# P_orb (s)        =  N/A
# asin(i)/c (s)    =  N/A
# eccentricity     =  N/A
# w (rad)          =  N/A
# T_peri           =  N/A
######################################################
   0  532.3052
   1  583.9312
   2  587.2142
   3  439.9393
   4  491.2728
   5  469.0584
   6  402.9909
   7  380.4153
   8  438.4778
   9  529.2105
  10  530.9822
  11  410.6628
  12  465.5221
  13  631.403
  14  523.0822
  15  497.7765
  16  603.3387
  17  658.9683
  18  602.2365
  19  498.1895
  20  452.6523
  21  469.1805
  22  453.627
  23  608.0818
  24  528.881
  25  530.4264
  26  549.6594
  27  577.4606
  28  517.322
  29  481.3122
  30  522.3121
  31  460.2788
  32  455.2292
  33  597.136
  34  654.9948
  35  497.6711
  36  543.626
  37  460.9097
  38  475.5854
  39  484.7909
  40  486.2581
  41  509.121
  42  533.9201
  43  461.6337
  44  401.2988
  45  553.3928
  46  568.6804
  47  478.7615
  48  441.2401
  49  453.6747
  50  537.6896
  51  626.035
  52  562.734
  53  561.9009
  54  511.372
  55  519.4904
  56  407.8901
  57  496.7134
  58  623.7579
  59  528.5458
  60  386.789
  61  512.1964
  62  546.9363
  63  595.55
  64  666.7659
  65  516.0363
  66  577.8531
  67  609.2203
  68  541.807
  69  505.536
  70  536.2039
  71  502.7289
  72  524.0137
  73  655.7159
  74  547.0614
  75  472.0366
  76  539.8546
  77  599.9481
  78  586.8372
  79  442.4185
  80  425.1712
  81  458.8972
  82  437.4463
  83  553.111
  84  563.0489
  85  613.5131
  86  489.8481
  87  562.8514
  88  654.1927
  89  526.0777
  90  383.4009
  91  520.3085
  92  556.2377
  93  565.4379
  94  632.9672
  95  517.9869
  96  369.1534
  97  367.3316
  98  572.8141
  99  534.6529
 100  539.3589
 101  526.3136
 102  581.8481
 103  551.1271
 104  446.1558
 105  488.3094
 106  582.4942
 107  550.7891
 108  477.1193
 109  598.4203
 110  550.9878
 111  466.2438
 112  477.0329
 113  456.2544
 114  410.9241
 115  503.1223
 116  606.7957
 117  591.626
 118  452.9911
 119  529.8285
 120  479.9919
 121  378.183
 122  366.2269
 123  443.1628
 124  484.2776
 125  532.7357
 126  393.8761
 127  480.7251
 128  527.3381
 129  459.8463
 130  466.438
 131  543.8733
 132  460.9507
 133  505.8087
 134  437.0247
 135  499.8225
 136  583.7841
 137  573.8188
 138  539.5944
 139  528.9175
 140  488.0152
 141  598.3447
 142  600.9907
 143  616.8813
 144  526.6305
 145  461.0291
 146  659.9924
 147  708.5865
 148  626.5503
 149  595.4036
 150  652.6127
 151  645.0176
 152  593.6311
 153  630.4716
 154  623.3402
 155  655.001
 156  648.6052
 157  511.3805
 158  520.6577
 159  483.166
 160  520.0255
 161  609.4866
 162  583.9187
 163  482.3769
 164  453.5927
 165  466.2525
 166  559.7998
 167  661.6841
 168  564.3654
 169  575.5704
 170  678.6358
 171  623.1806
 172  501.4224
 173  496.9046
 174  576.6974
 175  552.5897
 176  541.3224
 177  607.618
 178  554.0637
 179  542.6931
 180  559.641
 181  629.4681
 182  607.0827
 183  635.8047
 184  695.0629
 185  636.458
 186  545.7333
 187  591.314
 188  763.5607
 189  623.5797
 190  482.3509
 191  548.4117
 192  548.0806
 193  553.2846
 194  606.7546
 195  646.5421
 196  541.3467
 197  489.8779
 198  532.9581
 199  599.7881
 200  538.707
 201  604.6992
 202  579.0347
 203  626.3889
 204  579.8521
 205  644.1212
 206  621.429
 207  570.4819
 208  647.6609
 209  603.1559
 210  544.5953
 211  476.4257
 212  531.7318
 213  509.7863
 214  470.9062
 215  551.5579
 216  611.0864
 217  560.2328
 218  543.7543
 219  597.1536
 220  489.9865
 221  466.5429
 222  451.3179
 223  524.7704
 224  591.0076
 225  530.8375
 226  448.9464
 227  473.8795
 228  638.6722
 229  589.3445
 230  513.7274
 231  531.5568
 232  530.7748
 233  487.87
 234  591.7552
 235  709.8496
 236  573.7088
 237  629.1658
 238  715.3869
 239  570.9682
 240  477.871
 241  502.7801
 242  565.0432
 243  539.1331
 244  425.3839
 245  592.8706
 246  540.2
 247  509.0632
 248  397.9592
 249  469.7682
 250  515.3543
 251  475.1139
 252  480.144
 253  634.7725
 254  623.5922
 255  487.8967
 256  576.355
 257  540.7605
 258  572.8499
 259  530.5891
 260  561.6275
 261  467.1322
 262  436.1804
 263  447.9433
 264  436.8565
 265  491.1321
 266  468.0853
 267  471.6171
 268  562.1948
 269  659.333
 270  738.5925
 271  595.7286
 272  486.9021
 273  493.5966
 274  451.4592
 275  389.2026
 276  411.6297
 277  456.0963
 278  559.6356
 279  509.8069
 280  469.0699
 281  467.6515
 282  451.2676
 283  435.3726
 284  517.9323
 285  510.9958
 286  481.1612
 287  508.0757
 288  583.6185
 289  547.3468
 290  520.4822
 291  482.0922
 292  479.4823
 293  474.3999
 294  503.1841
 295  564.7611
 296  583.7228
 297  552.6418
 298  552.4432
 299  479.5154
 300  485.5424
 301  608.3326
 302  654.9709
 303  606.4454
 304  521.3698
 305  523.9725
 306  618.4141
 307  530.1402
 308  501.2037
 309  495.7321
 310  578.5305
 311  552.442
 312  519.1098
 313  604.5466
 314  659.4794
 315  578.7119
 316  481.4829
 317  571.2838
 318  418.0282
 319  394.2291
 320  524.5129
 321  580.0562
 322  438.7298
 323  429.7613
 324  511.616
 325  661.5042
 326  596.4976
 327  516.8761
 328  532.4553
 329  520.9141
 330  489.3964
 331  515.8113
 332  629.9944
 333  640.4138
 334  673.505
 335  621.6812
 336  581.1934
 337  510.4194
 338  489.149
 339  568.5803
 340  492.2347
 341  493.8316
 342  530.2885
 343  519.5931
 344  596.8194
 345  634.4032
 346  679.9706
 347  665.7601
 348  727.2444
 349  655.4095
 350  550.8907
 351  462.1051
 352  624.6731
 353  711.7158
 354  535.8516
 355  475.4288
 356  622.4766
 357  529.3414
 358  509.1441
 359  468.9875
 360  479.9669
 361  538.4016
 362  551.4766
 363  631.6378
 364  558.98
 365  556.1723
 366  560.4021
 367  519.774
 368  633.2845
 369  625.5515
 370  525.7805
 371  490.3935
 372  428.0214
 373  364.6253
 374  371.7123
 375  452.1389
 376  494.9905
 377  490.9138
 378  547.6903
 379  455.9212
 380  498.3068
 381  471.9595
 382  406.3788
 383  428.9839
 384  409.1092
 385  537.6491
 386  537.5541
 387  524.7756
 388  514.9937
 389  517.4879
 390  403.9587
 391  542.8254
 392  590.4891
 393  580.3033
 394  568.336
 395  501.1183
 396  513.6553
 397  543.5832
 398  548.4991
 399  576.4249
 400  539.1046
 401  470.0489
 402  475.2361
 403  593.5112
 404  579.4849
 405  433.1794
 406  491.4265
 407  564.3385
 408  562.9926
 409  473.0845
 410  528.6298
 411  583.3279
 412  523.4997
 413  569.2419
 414  553.5827
 415  601.006
 416  583.1648
 417  565.5909
 418  552.1183
 419  509.7546
 420  465.1117
 421  504.8672
 422  463.6897
 423  475.2699
 424  541.2503
 425  452.7375
 426  577.4653
 427  479.6815
 428  481.1172
 429  478.6118
 430  517.9413
 431  622.9516
 432  496.2864
 433  428.6436
 434  556.5482
 435  512.4304
 436  561.5488
 437  518.436
 438  578.6573
 439  562.2913
 440  488.7127
 441  559.2445
 442  549.7232
 443  574.9957
 444  610.1939
 445  701.0543
 446  701.7815
 447  764.0179
 448  778.4523
 449  911.7872
 450  900.4042
 451  838.2483
 452  798.0225
 453  837.3743
 454  702.0838
 455  609.5858
 456  639.2178
 457  547.0159
 458  444.4611
 459  381.3949
 460  569.4678
 461  557.7047
 462  533.2461
 463  686.6099
 464  574.64
 465  484.5442
 466  464.5575
 467  526.2606
 468  573.6468
 469  438.19
 470  498.9503
 471  633.5607
 472  622.3071
 473  507.6843
 474  532.6927
 475  585.5452
 476  517.9612
 477  531.2553
 478  554.0486
 479  590.3127
 480  569.7045
 481  604.0112
 482  662.4991
 483  608.9318
 484  511.3093
 485  482.4106
 486  525.0672
 487  542.8447
 488  608.5463
 489  563.3321
 490  424.3779
 491  440.6894
 492  659.2051
 493  705.7734
 494  583.8569
 495  501.9026
 496  597.5242
 497  514.517
 498  539.4972
 499  664.5883
 500  688.8977
 501  585.6435
 502  388.8057
 503  418.7758
 504  494.5426
 505  471.0587
 506  536.7128
 507  549.1287
 508  441.2635
 509  377.8181
 510  341.3799
 511  426.4214
