# Input file       =  1199997843.109079_cleaned.dat
# Candidate        =  PSR_0332+5434
# Telescope        =  AR
# Epoch_topo       =  58132.864144781008
# Epoch_bary       =  N/A
# T_sample         =  0.002
# Data Folded      =  7340032
# Data Avg         =  0.402053102688764
# Data StdDev      =  5.1873179738816  
# Profile Bins     =  512
# Profile Avg      =  5763.60639700782 
# Profile StdDev   =  621.093331664618 
# Reduced chi-sqr  =  0.600
# Prob(Noise)      <  1   (~0.0 sigma)
# P_topo (ms)      =  714.566833528444  +/- 0.000238
# P'_topo (s/s)    =  -0                +/- 1.25e-10
# P''_topo (s/s^2) =  0                 +/- 5.53e-14
# P_bary (ms)      =  N/A
# P'_bary (s/s)    =  N/A
# P''_bary (s/s^2) =  N/A
# P_orb (s)        =  N/A
# asin(i)/c (s)    =  N/A
# eccentricity     =  N/A
# w (rad)          =  N/A
# T_peri           =  N/A
######################################################
   0  5993.45
   1  5891.182
   2  5925.618
   3  6077.528
   4  5843.58
   5  6125.774
   6  6049.883
   7  5015.667
   8  5201.572
   9  5874.474
  10  6084.989
  11  5807.281
  12  5027.647
  13  5967.55
  14  5995.358
  15  5631.178
  16  6152.832
  17  5591.568
  18  5640.571
  19  5449.855
  20  5693.458
  21  5474.098
  22  5689.072
  23  6083.604
  24  6080.55
  25  5641.478
  26  6122.422
  27  6315.847
  28  6242.156
  29  6229.725
  30  6507.899
  31  6224.384
  32  5283.76
  33  5334.297
  34  5460.406
  35  5456.399
  36  5367.934
  37  5442.587
  38  5765.549
  39  5787.342
  40  5838.417
  41  5562.441
  42  5629.812
  43  5870.71
  44  6277.073
  45  6497.271
  46  6253.997
  47  5727.384
  48  5767.502
  49  5629.902
  50  5398.554
  51  5447.909
  52  5855.82
  53  6124.61
  54  6101.109
  55  6251.767
  56  6335.82
  57  6045.153
  58  6087.259
  59  5771.427
  60  6024.49
  61  6041.463
  62  5774.807
  63  6024.575
  64  5861.698
  65  6312.557
  66  6210.604
  67  6164.928
  68  5925.278
  69  6375.861
  70  6382.781
  71  5869.061
  72  5461.128
  73  5815.269
  74  5524.607
  75  5599.349
  76  5235.159
  77  5092.079
  78  5312.417
  79  5296.412
  80  5573.841
  81  5325.73
  82  5568.878
  83  5783.186
  84  5680.738
  85  5652.271
  86  5626.088
  87  5933.878
  88  5587.188
  89  5494.352
  90  5265.618
  91  5349.582
  92  5905.629
  93  5996.1
  94  5420.562
  95  5478.737
  96  5386.14
  97  5541.039
  98  5638.831
  99  5633.975
 100  5633.71
 101  5749.874
 102  5993.604
 103  6050.693
 104  5574.395
 105  5703.655
 106  5802.458
 107  5297.629
 108  5614.164
 109  5975.713
 110  6079.107
 111  5522.001
 112  5728.42
 113  5548.042
 114  5617.991
 115  5706.487
 116  6156.331
 117  6087.615
 118  5268.372
 119  5393.298
 120  5929.642
 121  5745.969
 122  5842.687
 123  5795.693
 124  5711.182
 125  5623.871
 126  6454.81
 127  6536.957
 128  6103.544
 129  6139.72
 130  6026.309
 131  5633.507
 132  5760.584
 133  5848.864
 134  5639.833
 135  5773.488
 136  5773.236
 137  5406.771
 138  5817.131
 139  5988.62
 140  5712.427
 141  5903.981
 142  6039.221
 143  5634.502
 144  5629.105
 145  5626.877
 146  5523.095
 147  5346.4
 148  5619.316
 149  5794.045
 150  5320.949
 151  5431.52
 152  6175.388
 153  6279.554
 154  5596.295
 155  6102.58
 156  6163.512
 157  5812.111
 158  5277.761
 159  5425.976
 160  5843.166
 161  5806.315
 162  5246.644
 163  5409.073
 164  5260.339
 165  5253.643
 166  5304.915
 167  5826.24
 168  5954.803
 169  5595.57
 170  5585.84
 171  5714.669
 172  5673.259
 173  5601.012
 174  5681.172
 175  5747.934
 176  5983.841
 177  5849.076
 178  5772.193
 179  5434.105
 180  5490.754
 181  5878.605
 182  5580.371
 183  5289.521
 184  5519.369
 185  5572.151
 186  5602.607
 187  5745.925
 188  5368.904
 189  5126.234
 190  5369.957
 191  4885.846
 192  5390.448
 193  5572.264
 194  5358.136
 195  5592.038
 196  5562.405
 197  5607.612
 198  5541.123
 199  5619.488
 200  5344.678
 201  5072.702
 202  5259.126
 203  5201.441
 204  5511.141
 205  5252.122
 206  5577.159
 207  5353.094
 208  5640.617
 209  6176.482
 210  6079.43
 211  5788.463
 212  5405.032
 213  5386.391
 214  5124.587
 215  5127.051
 216  5875.136
 217  5959.052
 218  5864.309
 219  5168.649
 220  5251.828
 221  5752.916
 222  5834.547
 223  5681.005
 224  5783.444
 225  5648.757
 226  5167.858
 227  5728.454
 228  5434.106
 229  5584.162
 230  5868.269
 231  5905.744
 232  5319.374
 233  5606.343
 234  5693.25
 235  5561.826
 236  5346.439
 237  5654.325
 238  6056.837
 239  6208.316
 240  5589.528
 241  5471.7
 242  5614.653
 243  5658.449
 244  5524.978
 245  5479.921
 246  5555.934
 247  5589.087
 248  5290.01
 249  5291.262
 250  5332.31
 251  6241.85
 252  6456.437
 253  5949.044
 254  5447.444
 255  5910.951
 256  5835.48
 257  6150.079
 258  6179.375
 259  6139.901
 260  6088.393
 261  5265.396
 262  4890.846
 263  5651.99
 264  5915.409
 265  6030.188
 266  6100.203
 267  6306.957
 268  5807.754
 269  5726.289
 270  5762.677
 271  5932.999
 272  5950.874
 273  5320.748
 274  5844.942
 275  6073.226
 276  5877.741
 277  5699.985
 278  5348.841
 279  5589.196
 280  5523.24
 281  5689.626
 282  5943.985
 283  5849.663
 284  6075.523
 285  6525.921
 286  6434.908
 287  5897.616
 288  5532.864
 289  5790.152
 290  5742.246
 291  5691.966
 292  5966.208
 293  5507.93
 294  5480.987
 295  5869.376
 296  5530.223
 297  5195.185
 298  5727.854
 299  6024.083
 300  5936.7
 301  6233.433
 302  6208.441
 303  6383.348
 304  6402.114
 305  6442.203
 306  6666.647
 307  6840.631
 308  6918.413
 309  7103.187
 310  7466.153
 311  7401.742
 312  6719.199
 313  6153.156
 314  5691.217
 315  5392.185
 316  5279.271
 317  6045.361
 318  5853.942
 319  5333.567
 320  5484.755
 321  5739.853
 322  5645.625
 323  5805.761
 324  6123.823
 325  6295.919
 326  5970.51
 327  5873.542
 328  5726.303
 329  6206.15
 330  5927.632
 331  5959.688
 332  5371.667
 333  5466.758
 334  4794.745
 335  5338.879
 336  5301.97
 337  5628.711
 338  5548.984
 339  5658.944
 340  5557.175
 341  5910.3
 342  5787.354
 343  5959.732
 344  5679.55
 345  5717.39
 346  5748.125
 347  5705.741
 348  5099.025
 349  5515.847
 350  5628.215
 351  5648.574
 352  5779.371
 353  5505.085
 354  5428.012
 355  5665.405
 356  5704.443
 357  5612.258
 358  5900.502
 359  5545.828
 360  5543.066
 361  5396.255
 362  5848.931
 363  5808.85
 364  5611.31
 365  5692.398
 366  6004.209
 367  6146.309
 368  6282.075
 369  5863.457
 370  5748.807
 371  5251.158
 372  5289.784
 373  5214.594
 374  5491.824
 375  6036.455
 376  5584.416
 377  5399.264
 378  5572.236
 379  5514.334
 380  6084.873
 381  5562.191
 382  5525.032
 383  5743.168
 384  6443.753
 385  6213.686
 386  5639.904
 387  5539.486
 388  6240.03
 389  5720.285
 390  5220.245
 391  5456.257
 392  5938.35
 393  5591.611
 394  5448.059
 395  5902.989
 396  6444.364
 397  5962.621
 398  5606.451
 399  5905.261
 400  5748.433
 401  5693.465
 402  5612.063
 403  5828.156
 404  5579.9
 405  5808.681
 406  5660.437
 407  5554.493
 408  5217.239
 409  5448.235
 410  5769.349
 411  5998.005
 412  5469.811
 413  5859.023
 414  6194.146
 415  6140.141
 416  5621.512
 417  5449.24
 418  5294.57
 419  5027.71
 420  5729.776
 421  5853.511
 422  5717.766
 423  5741.002
 424  5620.742
 425  5731.373
 426  5514.975
 427  5669.188
 428  6126.964
 429  6112.084
 430  5807.97
 431  5476.396
 432  5897.322
 433  5971.995
 434  6087.47
 435  6470.125
 436  6108.24
 437  5843.755
 438  5681.503
 439  6088.6
 440  6066.907
 441  5726.432
 442  5931.192
 443  5569.515
 444  5623.181
 445  5336.176
 446  5690.558
 447  5595.517
 448  5960.456
 449  6251.681
 450  6280.969
 451  5989.596
 452  6263.011
 453  5846.146
 454  5586.255
 455  5932.203
 456  6064.854
 457  5816.97
 458  5847.037
 459  5344.116
 460  5375.029
 461  5341.962
 462  5896.24
 463  6147.393
 464  5779.783
 465  5638.836
 466  5741.764
 467  5355.53
 468  5482.513
 469  5824.138
 470  5888.496
 471  6059.25
 472  6027.43
 473  6000.251
 474  5746.499
 475  5902.451
 476  6245.875
 477  5859.932
 478  6311.348
 479  6315.917
 480  5559.57
 481  5624.402
 482  5797.98
 483  5845.636
 484  6030.083
 485  5943.321
 486  5512.558
 487  5549.257
 488  6126.185
 489  6170.51
 490  6146.238
 491  6098.15
 492  5702.688
 493  6115.902
 494  5659.064
 495  5518.158
 496  5643.157
 497  5709.753
 498  5605.695
 499  5667.83
 500  6033.261
 501  5926.39
 502  5757.688
 503  5823.755
 504  6274.671
 505  6146.176
 506  5968.439
 507  6189.849
 508  5917.021
 509  5808.979
 510  5953.705
 511  6317.653
