# Input file       =  1199896224.112061_cleaned.dat
# Candidate        =  PSR_0332+5434
# Telescope        =  AR
# Epoch_topo       =  58131.687998982190
# Epoch_bary       =  N/A
# T_sample         =  0.002
# Data Folded      =  7340032
# Data Avg         =  0.298620083751822
# Data StdDev      =  3.94851559587198 
# Profile Bins     =  512
# Profile Avg      =  4280.99599829357 
# Profile StdDev   =  472.767761474768 
# Reduced chi-sqr  =  0.765
# Prob(Noise)      <  1   (~0.0 sigma)
# P_topo (ms)      =  714.565666973121  +/- 0.000345
# P'_topo (s/s)    =  -0                +/- 1.82e-10
# P''_topo (s/s^2) =  0                 +/- 8.03e-14
# P_bary (ms)      =  N/A
# P'_bary (s/s)    =  N/A
# P''_bary (s/s^2) =  N/A
# P_orb (s)        =  N/A
# asin(i)/c (s)    =  N/A
# eccentricity     =  N/A
# w (rad)          =  N/A
# T_peri           =  N/A
######################################################
   0  4265.018
   1  4261.968
   2  3892.911
   3  4541.146
   4  4296.786
   5  3958.658
   6  3905.677
   7  4139
   8  4106.312
   9  4410.048
  10  4192.492
  11  4326.065
  12  4054.489
  13  3864.707
  14  3820.446
  15  4114.727
  16  4596.384
  17  4705.744
  18  4385.13
  19  4047.645
  20  4146.433
  21  4110.415
  22  4018.274
  23  3754.977
  24  3649.671
  25  3809.909
  26  3758.739
  27  4138.568
  28  3816.758
  29  3566.332
  30  3860.933
  31  3929.514
  32  4230.169
  33  4089.734
  34  4651.805
  35  4488.434
  36  4155.236
  37  4311.635
  38  4106.572
  39  3769.264
  40  4075.385
  41  4202.907
  42  4068.119
  43  4226.833
  44  4355.706
  45  4557.257
  46  4249.327
  47  3884.576
  48  3708.445
  49  3829.085
  50  3899.414
  51  3755.825
  52  3906.515
  53  4345.472
  54  4848.536
  55  4549.215
  56  4149.96
  57  4117.114
  58  3944.991
  59  4131.425
  60  3977.451
  61  3867.002
  62  3953.862
  63  4267.537
  64  4672.363
  65  4511.544
  66  4300.124
  67  4633.652
  68  4441.347
  69  4295.195
  70  4295.258
  71  4058.051
  72  4041.71
  73  4343.126
  74  4334.722
  75  4089.652
  76  3869.098
  77  3857.374
  78  4099.138
  79  4217.143
  80  4034.824
  81  4041.349
  82  3974.321
  83  4286.812
  84  4457.395
  85  4066.174
  86  3829.352
  87  4073.111
  88  4264.927
  89  4309.03
  90  4281.904
  91  4446.896
  92  4459.359
  93  4361.802
  94  4632.698
  95  4730.114
  96  4840.183
  97  4493.992
  98  4209.009
  99  4429.258
 100  4136.768
 101  4132.456
 102  4176.105
 103  4047.138
 104  3884.859
 105  3853.632
 106  4045.629
 107  4301.184
 108  4202.891
 109  4198.388
 110  4233.564
 111  4365.147
 112  4393.743
 113  4095.987
 114  3929.425
 115  4133.255
 116  4355.745
 117  4280.778
 118  4033.228
 119  3765.452
 120  4176.728
 121  4525.917
 122  4683.533
 123  4136.403
 124  4097.152
 125  3913.672
 126  4009.966
 127  4014.708
 128  4609.854
 129  4541.417
 130  4418.485
 131  4655.896
 132  4489.05
 133  4147.256
 134  4325.452
 135  4030.646
 136  4353.671
 137  4441.4
 138  4266.018
 139  4367.342
 140  4178.378
 141  4148.25
 142  3948.329
 143  4080.224
 144  4484.683
 145  4952.048
 146  4508.274
 147  4015.686
 148  4156.33
 149  4423.411
 150  4281.814
 151  4471.796
 152  4437.571
 153  4404.585
 154  4430.887
 155  4361.998
 156  4165.132
 157  4048.463
 158  4130.163
 159  4450.558
 160  4682.648
 161  4125.484
 162  3894.582
 163  4247.329
 164  4319.317
 165  4399.725
 166  4334.05
 167  4504.117
 168  4401.179
 169  4660.294
 170  4284.511
 171  4396.112
 172  4236.155
 173  4409.588
 174  4481.938
 175  4368.173
 176  4259.242
 177  4125.284
 178  3965.065
 179  3947.594
 180  4428.022
 181  4834.81
 182  4574.636
 183  4272.075
 184  4225.313
 185  4224.387
 186  3962.722
 187  4160.098
 188  4383.186
 189  3999.253
 190  4102.329
 191  4383.397
 192  4298.803
 193  4419.821
 194  4254.481
 195  4231.906
 196  4321.994
 197  4120.415
 198  4248.87
 199  4141.669
 200  3923.065
 201  4122.774
 202  4086.532
 203  4093.74
 204  4128.372
 205  4058.056
 206  4122.46
 207  3607.382
 208  3789.618
 209  4473.097
 210  4712.753
 211  4240.235
 212  4266.544
 213  3991.19
 214  4192.324
 215  4277.821
 216  4487.195
 217  4608.52
 218  4625.946
 219  4566.221
 220  4709.971
 221  4513.466
 222  4569.611
 223  4503.938
 224  4582.833
 225  4566.271
 226  4206.442
 227  4244.903
 228  4525.545
 229  4446.059
 230  3884.915
 231  4411.915
 232  4797.654
 233  4439.18
 234  4473.553
 235  4635.798
 236  4480.686
 237  4452.798
 238  4456.487
 239  4454.271
 240  4284.391
 241  4017.502
 242  3964.265
 243  4320.922
 244  4324.757
 245  4315.675
 246  4384.991
 247  4213.659
 248  4057.66
 249  4447.901
 250  4228.546
 251  4409.958
 252  4246.651
 253  4377.977
 254  4105.366
 255  4041.719
 256  3741.828
 257  3916.161
 258  4200.189
 259  3885.487
 260  4036.445
 261  4343.469
 262  4399.552
 263  4617.322
 264  4251.312
 265  4379.305
 266  4062.181
 267  4368.4
 268  4306.997
 269  4014.751
 270  4188.393
 271  4390.036
 272  4279.629
 273  4058.438
 274  3984.534
 275  4253.194
 276  4233.689
 277  4088.288
 278  4338.049
 279  4363.111
 280  4371.49
 281  4228.038
 282  4153.493
 283  3712.579
 284  3756.954
 285  4056.386
 286  4288.205
 287  4379.682
 288  4231.419
 289  4412.996
 290  4420.411
 291  4160.686
 292  4531.64
 293  4167.671
 294  4211.282
 295  4204.913
 296  4197.515
 297  3918.838
 298  3859.246
 299  4052.267
 300  4059.538
 301  4312.119
 302  4947.011
 303  4740.104
 304  4624.928
 305  4946.09
 306  4729.584
 307  5104.102
 308  5663.85
 309  6087.857
 310  5913.392
 311  5408.131
 312  4813.253
 313  4452.618
 314  4591.83
 315  4411.832
 316  4035.1
 317  4135.609
 318  4365.763
 319  4318.473
 320  4085.335
 321  4378.613
 322  4344.95
 323  4212.875
 324  4431.248
 325  3968.52
 326  3812.169
 327  4334.862
 328  4476.187
 329  4427.711
 330  3971.884
 331  4123.622
 332  4225.574
 333  4496.271
 334  4418.811
 335  4415.421
 336  4243.051
 337  4538.662
 338  4318.411
 339  3962.956
 340  3713.301
 341  3545.857
 342  3843.399
 343  4263.166
 344  4076.181
 345  4196.807
 346  4326.291
 347  4384.847
 348  3786.619
 349  3693.86
 350  3925.895
 351  4067.888
 352  4279.782
 353  4337.948
 354  3951.68
 355  4117.586
 356  4319.141
 357  3873.95
 358  3880.375
 359  3890.628
 360  4082.623
 361  4299.423
 362  4677.484
 363  4337.322
 364  4436.605
 365  4232.422
 366  4397.955
 367  4404.41
 368  4171.999
 369  3960.614
 370  4241.032
 371  4416.2
 372  4048.455
 373  4179.518
 374  4501.375
 375  4368.208
 376  4334.198
 377  3927.618
 378  3971.506
 379  4203.93
 380  4251.172
 381  4275.98
 382  4673.843
 383  4471.891
 384  4361.162
 385  4063.747
 386  4357.092
 387  4072.783
 388  4125.019
 389  4472.138
 390  4259.733
 391  3969.951
 392  4059.853
 393  4312.116
 394  4761.527
 395  4962.05
 396  4877.074
 397  4891.168
 398  4715.802
 399  4561.598
 400  4365.998
 401  4442.676
 402  4334.02
 403  4384.576
 404  4913.146
 405  5021.915
 406  4802.579
 407  4775.198
 408  4661.569
 409  4584.573
 410  4246.117
 411  3867.654
 412  3971.415
 413  4232.292
 414  4249.246
 415  4561.837
 416  4669.646
 417  4477.956
 418  4349.411
 419  4241.984
 420  4144.206
 421  4859.661
 422  4734.855
 423  4360.011
 424  4298.769
 425  4451.807
 426  4203.88
 427  4032.54
 428  4300.106
 429  4439.25
 430  4503.871
 431  4498.957
 432  4076.375
 433  3819.088
 434  4039.568
 435  4213.737
 436  4142.873
 437  4229.439
 438  4165.238
 439  4386.042
 440  4411.199
 441  4476.854
 442  4304.877
 443  4043.904
 444  4191.196
 445  4185.709
 446  4063.248
 447  4220.961
 448  4697.805
 449  4760.79
 450  4282.054
 451  4020.938
 452  3863.001
 453  3727.258
 454  4175.702
 455  4296.502
 456  4335.159
 457  4408.939
 458  4245.803
 459  3866.886
 460  4194.478
 461  4369.499
 462  4619.714
 463  4377.113
 464  4702.83
 465  4590.001
 466  5030.647
 467  4452.444
 468  4665.057
 469  4178.13
 470  4118.208
 471  4094.342
 472  4439.178
 473  4715.466
 474  4797.286
 475  4396.257
 476  4571.595
 477  4329.221
 478  4096.624
 479  4435.331
 480  4739.974
 481  5105.777
 482  4691.219
 483  4377.375
 484  3578.914
 485  3749.237
 486  4087.232
 487  4504.709
 488  4434.349
 489  4406.533
 490  4347.016
 491  4483.836
 492  4259.732
 493  4342.919
 494  4313.807
 495  4231.76
 496  4228.042
 497  4485.79
 498  4481.808
 499  4163.533
 500  4171.878
 501  4509.385
 502  4238.136
 503  4306.819
 504  4374.745
 505  4448.325
 506  4557.441
 507  4313.656
 508  4163.226
 509  4219.449
 510  4234.599
 511  4130.008
