# Input file       =  1199997843.109079_cleaned.dat
# Candidate        =  PSR_0332+5434
# Telescope        =  AR
# Epoch_topo       =  58132.864144781008
# Epoch_bary       =  N/A
# T_sample         =  0.002
# Data Folded      =  7340032
# Data Avg         =  0.402053102688764
# Data StdDev      =  5.1873179738816  
# Profile Bins     =  512
# Profile Avg      =  5763.60639699756 
# Profile StdDev   =  621.093331664618 
# Reduced chi-sqr  =  0.590
# Prob(Noise)      <  1   (~0.0 sigma)
# P_topo (ms)      =  714.566833542897  +/- 0.00024
# P'_topo (s/s)    =  -0                +/- 1.27e-10
# P''_topo (s/s^2) =  0                 +/- 5.6e-14
# P_bary (ms)      =  N/A
# P'_bary (s/s)    =  N/A
# P''_bary (s/s^2) =  N/A
# P_orb (s)        =  N/A
# asin(i)/c (s)    =  N/A
# eccentricity     =  N/A
# w (rad)          =  N/A
# T_peri           =  N/A
######################################################
   0  5526.123
   1  5381.108
   2  6013.819
   3  6092.717
   4  6027.513
   5  5519.082
   6  5407.932
   7  5233.056
   8  5115.778
   9  5456.136
  10  5978.184
  11  5877.414
  12  5520.226
  13  5181.04
  14  5503.84
  15  5813.425
  16  5819.816
  17  5652.262
  18  5859.092
  19  5149.25
  20  5556.231
  21  5624.762
  22  5456.588
  23  5692.128
  24  5957.672
  25  5613.25
  26  5422.352
  27  5775.265
  28  5508.689
  29  5506.346
  30  5420.626
  31  5948.998
  32  6172.034
  33  5896.058
  34  5474.244
  35  5554.095
  36  5641.061
  37  5538.973
  38  5515.017
  39  5552.933
  40  5556.624
  41  5447.752
  42  5216.565
  43  5372.061
  44  5679.609
  45  6563.809
  46  6178.682
  47  5593.124
  48  5707.474
  49  5849.34
  50  5952.646
  51  6273.607
  52  6160.646
  53  6091.492
  54  5757.984
  55  4792.5
  56  5412.963
  57  5773.646
  58  6023.574
  59  6046.423
  60  6310.242
  61  6067.29
  62  5583.476
  63  5770.024
  64  5872.615
  65  6084.166
  66  5510.833
  67  5509.649
  68  6086.429
  69  6030.412
  70  5750.041
  71  5456.288
  72  5462.512
  73  5636.553
  74  5525.639
  75  5869.251
  76  5868.873
  77  5893.572
  78  6366.239
  79  6520.404
  80  6219.933
  81  5546.595
  82  5779.19
  83  5735.603
  84  5638.091
  85  5900.058
  86  5762.988
  87  5424.389
  88  5724.034
  89  5724.798
  90  5346.706
  91  5326.591
  92  6022.617
  93  5857.802
  94  6213.87
  95  6198.77
  96  6356.612
  97  6285.849
  98  6513.313
  99  6504.747
 100  6770.209
 101  6903.775
 102  6912.045
 103  7416.832
 104  7474.199
 105  7048.153
 106  6404.52
 107  5882.092
 108  5625.711
 109  5066.832
 110  5798.841
 111  6019.734
 112  5620.5
 113  5255.292
 114  5694.074
 115  5643.676
 116  5792.218
 117  5877.938
 118  6320.899
 119  6076.932
 120  5919.041
 121  5780.849
 122  5930.271
 123  6178.953
 124  5916.033
 125  5732.528
 126  5355.114
 127  5102.517
 128  4947.905
 129  5481.751
 130  5399.884
 131  5581.443
 132  5625.504
 133  5608.567
 134  5820.977
 135  5749.376
 136  5896.759
 137  5825.036
 138  5672.565
 139  5771.625
 140  5666.391
 141  5501.79
 142  5164.326
 143  5721.225
 144  5481.566
 145  5802.905
 146  5706.485
 147  5404.605
 148  5515.275
 149  5674.879
 150  5707.817
 151  5746.157
 152  5735.895
 153  5511.659
 154  5486.151
 155  5641.039
 156  5824.605
 157  5720.765
 158  5535.919
 159  5934.991
 160  6035.878
 161  6294.009
 162  6093.168
 163  5790.327
 164  5533.583
 165  5131.954
 166  5357.734
 167  5151.154
 168  5986.782
 169  5792.344
 170  5383.321
 171  5545.263
 172  5535.461
 173  5917.354
 174  5836.585
 175  5407.688
 176  5630.089
 177  6141.441
 178  6408.166
 179  5797.082
 180  5537.123
 181  5997.123
 182  6097.219
 183  5284.157
 184  5338.587
 185  5726.875
 186  5924.579
 187  5224.627
 188  5789.431
 189  6194.834
 190  6411.391
 191  5491.637
 192  5848.438
 193  5821.636
 194  5784.678
 195  5567.528
 196  5761.709
 197  5704.031
 198  5703.613
 199  5737.48
 200  5576.808
 201  5325.916
 202  5409.763
 203  5588.713
 204  6014.596
 205  5630.438
 206  5598.784
 207  6118.867
 208  6149.015
 209  5910.954
 210  5462.955
 211  5518.637
 212  5012.965
 213  5330.654
 214  5891.295
 215  5768.743
 216  5778.682
 217  5640.234
 218  5686.041
 219  5631.201
 220  5510.995
 221  5948.438
 222  6091.501
 223  6070.191
 224  5532.96
 225  5660.73
 226  5958.705
 227  5959.815
 228  6413.543
 229  6289.393
 230  5917.275
 231  5755.611
 232  5876.644
 233  6197.132
 234  5709.542
 235  5925.396
 236  5757.101
 237  5629.961
 238  5430.824
 239  5432.444
 240  5735.105
 241  5723.804
 242  6196.958
 243  6266.016
 244  6095.221
 245  6142.7
 246  6133.312
 247  5579.16
 248  5798.167
 249  6024.232
 250  6024.523
 251  5722.19
 252  5634.623
 253  5296.785
 254  5385.461
 255  5545.449
 256  6079.982
 257  6026.348
 258  5617.734
 259  5864.646
 260  5405.739
 261  5368.955
 262  5709.53
 263  5900.028
 264  6035.795
 265  5913.606
 266  6147.428
 267  5789.14
 268  5807.772
 269  6063.504
 270  6095.23
 271  6009.999
 272  6513.271
 273  5830.369
 274  5525.239
 275  5752.95
 276  5793.705
 277  5914.604
 278  6039.603
 279  5778.552
 280  5432.244
 281  5813.549
 282  6272.5
 283  6037.743
 284  6332.231
 285  5671.249
 286  5983.689
 287  5908.296
 288  5524.203
 289  5605.646
 290  5671.548
 291  5690.072
 292  5591.222
 293  5915.407
 294  5985.748
 295  5804.183
 296  5795.393
 297  6081.295
 298  6309.149
 299  5893.637
 300  6114.888
 301  6126.829
 302  5844.102
 303  5765.804
 304  6211.056
 305  6199.635
 306  5915.775
 307  5829.368
 308  6055.351
 309  5990.434
 310  5897.913
 311  6223.294
 312  5346.236
 313  5088.4
 314  5611.707
 315  6082.776
 316  5953.009
 317  5326.743
 318  5407.223
 319  6225.334
 320  5626.026
 321  5946.026
 322  5964.132
 323  5563.456
 324  5487.216
 325  5566.237
 326  5620.852
 327  5531.766
 328  5920.008
 329  6150.631
 330  5770.035
 331  5882.76
 332  6326.629
 333  6248.129
 334  6204.474
 335  6336.606
 336  6535.354
 337  5662.447
 338  5174.769
 339  5513.516
 340  5413.61
 341  5408.43
 342  5340.134
 343  5651.48
 344  5839.771
 345  5812.247
 346  5638.5
 347  5563.714
 348  5783.37
 349  6064.941
 350  6444.598
 351  6380.76
 352  6010.212
 353  5623.317
 354  5831.565
 355  5366.308
 356  5496.895
 357  5604.895
 358  6078.406
 359  6036.357
 360  6214.985
 361  6351.578
 362  6228.312
 363  5933.644
 364  5987.363
 365  5817.112
 366  6198.815
 367  5766.604
 368  5915.901
 369  5898.944
 370  6124.117
 371  6327.592
 372  6191.333
 373  5991.611
 374  6169.222
 375  6428.809
 376  6190.313
 377  5436.024
 378  5790.414
 379  5627.182
 380  5556.692
 381  5402.795
 382  5121.437
 383  5299.687
 384  5229.037
 385  5471.333
 386  5445.148
 387  5470.289
 388  5678.036
 389  5732.56
 390  5584.856
 391  5733.706
 392  5735.777
 393  5802.233
 394  5402.608
 395  5514.77
 396  5242.995
 397  5612.177
 398  6054.822
 399  5658.133
 400  5467.976
 401  5450.527
 402  5383.243
 403  5628.18
 404  5653.419
 405  5645.241
 406  5661.874
 407  5795.996
 408  6236.299
 409  5712.222
 410  5604.86
 411  5804.757
 412  5508.299
 413  5442.413
 414  5731.188
 415  6171.298
 416  5712.653
 417  5643.949
 418  5637.293
 419  5572.352
 420  5619.169
 421  5984.954
 422  6211.134
 423  5686.559
 424  5027.955
 425  5932.86
 426  5720.485
 427  5939.41
 428  5688.992
 429  5853.482
 430  5529.936
 431  6101.032
 432  6565.901
 433  6273.869
 434  6107.186
 435  6171.215
 436  5787.688
 437  5580.435
 438  5864.796
 439  5781.804
 440  5654.973
 441  5835.995
 442  5515.687
 443  5595.149
 444  6033.103
 445  5769.073
 446  5784.495
 447  6037.198
 448  5906.229
 449  5427.632
 450  5698.206
 451  5623.121
 452  5447.049
 453  5356.354
 454  5784.733
 455  5560.841
 456  5336.62
 457  5786.583
 458  6421.384
 459  5794.019
 460  5882.408
 461  6185.626
 462  6010.03
 463  5427.766
 464  5325.56
 465  5686.996
 466  5972.54
 467  5342.587
 468  5342.606
 469  5441.359
 470  5225.892
 471  5186.779
 472  5478.205
 473  6116.704
 474  5769.498
 475  5470.688
 476  5636.49
 477  5785.195
 478  5601.102
 479  5649.086
 480  5581.992
 481  5946.41
 482  5934.305
 483  5863.721
 484  5532.439
 485  5413.715
 486  5741.529
 487  5773.734
 488  5342.278
 489  5436.899
 490  5595.987
 491  5580.83
 492  5624.779
 493  5629.212
 494  5120.833
 495  5463.056
 496  4975.951
 497  5091.679
 498  5530.578
 499  5471.391
 500  5468.827
 501  5632.862
 502  5549.059
 503  5590.915
 504  5619.64
 505  5451.573
 506  5124.465
 507  5216.923
 508  5217.814
 509  5417.953
 510  5272.181
 511  5494.748
