# Input file       =  1199896224.112061_cleaned.dat
# Candidate        =  PSR_0332+5434
# Telescope        =  AR
# Epoch_topo       =  58131.687998982190
# Epoch_bary       =  N/A
# T_sample         =  0.002
# Data Folded      =  7340032
# Data Avg         =  0.298620083751822
# Data StdDev      =  3.94851559587198 
# Profile Bins     =  512
# Profile Avg      =  4280.99599842733 
# Profile StdDev   =  472.767761474768 
# Reduced chi-sqr  =  0.766
# Prob(Noise)      <  1   (~0.0 sigma)
# P_topo (ms)      =  714.565666988945  +/- 0.000346
# P'_topo (s/s)    =  -0                +/- 1.82e-10
# P''_topo (s/s^2) =  0                 +/- 8.05e-14
# P_bary (ms)      =  N/A
# P'_bary (s/s)    =  N/A
# P''_bary (s/s^2) =  N/A
# P_orb (s)        =  N/A
# asin(i)/c (s)    =  N/A
# eccentricity     =  N/A
# w (rad)          =  N/A
# T_peri           =  N/A
######################################################
   0  3835.298
   1  3978.025
   2  4077.627
   3  4324.992
   4  4280.735
   5  3891.491
   6  4318.79
   7  4090.345
   8  3883.423
   9  3836.107
  10  4007.125
  11  4080.992
  12  4561.859
  13  4500.857
  14  4357.477
  15  4376.639
  16  4272.314
  17  4431.533
  18  4338.926
  19  4036.648
  20  4056.965
  21  4326.788
  22  4360.806
  23  3986.955
  24  4389.187
  25  4379.311
  26  4420.234
  27  4160.163
  28  3924.726
  29  4002.355
  30  4272.855
  31  4210.328
  32  4493.268
  33  4610.614
  34  4430.429
  35  4225.644
  36  4190.256
  37  4296.26
  38  3973.275
  39  4294.943
  40  4471.303
  41  4113.444
  42  3901.469
  43  4216.099
  44  4432.327
  45  4964.231
  46  4818.747
  47  4946.656
  48  4825.312
  49  4691.332
  50  4410.198
  51  4435.85
  52  4369.978
  53  4353.216
  54  4558.545
  55  5063.668
  56  4880.924
  57  4800.931
  58  4712.334
  59  4662.983
  60  4447.783
  61  4099.668
  62  3867.411
  63  4106.882
  64  4194.478
  65  4334.191
  66  4697.738
  67  4626.459
  68  4354.492
  69  4357.667
  70  4147.247
  71  4447.429
  72  4836.673
  73  4584.569
  74  4263.236
  75  4452.827
  76  4343.537
  77  4065.866
  78  4137.931
  79  4396.733
  80  4450.023
  81  4503.709
  82  4413.854
  83  3909.066
  84  3870.298
  85  4083.893
  86  4267.035
  87  4141.946
  88  4249.837
  89  4129.048
  90  4513.239
  91  4367.829
  92  4525.768
  93  4121.279
  94  4107.018
  95  4186.644
  96  4181.633
  97  4033.185
  98  4420.208
  99  4764.008
 100  4625.356
 101  4197.014
 102  3943.97
 103  3780.672
 104  3806.233
 105  4340.224
 106  4265.483
 107  4322.718
 108  4422.71
 109  4045.095
 110  4024.084
 111  4205.21
 112  4496.214
 113  4568.582
 114  4448.307
 115  4648.927
 116  4722.746
 117  4906.466
 118  4504.296
 119  4509.184
 120  4119.393
 121  4094.833
 122  4233.731
 123  4511.148
 124  4789.893
 125  4703.469
 126  4417.854
 127  4558.984
 128  4104.713
 129  4252.74
 130  4526.465
 131  4924.295
 132  4975.973
 133  4575.335
 134  4095.369
 135  3512.897
 136  3881.332
 137  4341.855
 138  4493.371
 139  4423.372
 140  4291.3
 141  4496.942
 142  4364.665
 143  4289.067
 144  4312.831
 145  4308.931
 146  4195.148
 147  4300.829
 148  4600.71
 149  4339.81
 150  4113.301
 151  4274.239
 152  4508.161
 153  4171.464
 154  4377.119
 155  4353.482
 156  4489.138
 157  4576.322
 158  4097.426
 159  4334.853
 160  4092.874
 161  4354.388
 162  3963.119
 163  4388.147
 164  4097.833
 165  4075.6
 166  4658.712
 167  4021.418
 168  4012.141
 169  3938.614
 170  4143.52
 171  4174.869
 172  4405.987
 173  4197.095
 174  4264.083
 175  3956.704
 176  3813.678
 177  3913.838
 178  4276.486
 179  4727.25
 180  4622.645
 181  4234.07
 182  4041.297
 183  4150.834
 184  4088.7
 185  3870.074
 186  3745.187
 187  3702.814
 188  3761.574
 189  3859.871
 190  4150.894
 191  3660.487
 192  3698.856
 193  3801.909
 194  4078.621
 195  4184.31
 196  4264.433
 197  4680.803
 198  4279.809
 199  4212.429
 200  4360.662
 201  3903.321
 202  3820.154
 203  4212.626
 204  4108.465
 205  4094.357
 206  4274.749
 207  4504.676
 208  4491.986
 209  4070.185
 210  3744.099
 211  3800.007
 212  3872.478
 213  3820.992
 214  3747.371
 215  4136.988
 216  4552.772
 217  4790.191
 218  4316.566
 219  4146.004
 220  4088.625
 221  3975.289
 222  4099.531
 223  3900.155
 224  3861.999
 225  4049.157
 226  4442.091
 227  4767.955
 228  4310.271
 229  4434.54
 230  4569.083
 231  4394.601
 232  4280.099
 233  4243.261
 234  4002.774
 235  4118.335
 236  4432.068
 237  4229.738
 238  4069.491
 239  3763.513
 240  3934.672
 241  4144.522
 242  4193.106
 243  4033.078
 244  3953.389
 245  4056.773
 246  4455.502
 247  4344.504
 248  3938.232
 249  3822.701
 250  4219.547
 251  4277.428
 252  4265.836
 253  4351.427
 254  4525.98
 255  4417.309
 256  4390.243
 257  4663.023
 258  4787.832
 259  4838.698
 260  4264.09
 261  4318.793
 262  4352.523
 263  4086.173
 264  4197.617
 265  4112.397
 266  4026.379
 267  3777.736
 268  3939.86
 269  4136.748
 270  4332.17
 271  4139.945
 272  4195.669
 273  4265.891
 274  4422.751
 275  4331.98
 276  3969.345
 277  4018.533
 278  4222.573
 279  4324.714
 280  4241.595
 281  3874.356
 282  3894.02
 283  4286.296
 284  4636.386
 285  4559.859
 286  4039.907
 287  4021.812
 288  3961.459
 289  3995.992
 290  4203.041
 291  4658.052
 292  4417.17
 293  4569.065
 294  4661.206
 295  4293.393
 296  4167.068
 297  4288.398
 298  4049.297
 299  4496.13
 300  4321.62
 301  4316.504
 302  4331.563
 303  4155.595
 304  4037.158
 305  4024.604
 306  4149.36
 307  4737.468
 308  4838.812
 309  4328.052
 310  3932.469
 311  4384.498
 312  4269.021
 313  4398.763
 314  4471.327
 315  4395.887
 316  4471.686
 317  4375.479
 318  4306.747
 319  4066.203
 320  4086.711
 321  4214.077
 322  4599.161
 323  4535.241
 324  3963.208
 325  4006.933
 326  4259.342
 327  4334.538
 328  4481.285
 329  4351.917
 330  4469.76
 331  4464.011
 332  4604.13
 333  4264.092
 334  4348.165
 335  4253.556
 336  4491.134
 337  4452.073
 338  4307.109
 339  4155.776
 340  4152.763
 341  3881.028
 342  4123.377
 343  4563.787
 344  4907.103
 345  4328.836
 346  4327.894
 347  4132.21
 348  4280.965
 349  3837.149
 350  4387.466
 351  4180.917
 352  4025.731
 353  4206.445
 354  4380.824
 355  4268.49
 356  4454.439
 357  4158.979
 358  4338.571
 359  4218.581
 360  4175.807
 361  4262.729
 362  4012.056
 363  3983.448
 364  4140.135
 365  4011.225
 366  4160.841
 367  4077.358
 368  4183.064
 369  3882.95
 370  3587.538
 371  4023.892
 372  4702.752
 373  4482.75
 374  4202.559
 375  4230.923
 376  4023.451
 377  4208.352
 378  4314.908
 379  4610.645
 380  4634.416
 381  4602.397
 382  4520.974
 383  4769.582
 384  4467.986
 385  4606.433
 386  4449.425
 387  4636.306
 388  4463.023
 389  4148.387
 390  4347.179
 391  4593.494
 392  4216.278
 393  3931.328
 394  4657.077
 395  4705.923
 396  4305.064
 397  4650.104
 398  4530.429
 399  4544.914
 400  4364.068
 401  4502.963
 402  4400.95
 403  4159.589
 404  3986.994
 405  4023.162
 406  4466.747
 407  4251.051
 408  4326.295
 409  4373.813
 410  4112.791
 411  4238.061
 412  4330.83
 413  4295.93
 414  4372.855
 415  4314.253
 416  4246.224
 417  4061.31
 418  4015.171
 419  3696.86
 420  4087.18
 421  4063.536
 422  3905.713
 423  4150.664
 424  4389.663
 425  4455.265
 426  4563.91
 427  4260.094
 428  4302.203
 429  4089.896
 430  4422.252
 431  4201.395
 432  4021.662
 433  4305.356
 434  4379.025
 435  4141.448
 436  4039.974
 437  4007.884
 438  4421.477
 439  4039.739
 440  4249.166
 441  4305.94
 442  4406.288
 443  4268.288
 444  4227.366
 445  4055.787
 446  3621.172
 447  3887.505
 448  4103.426
 449  4400.664
 450  4346.17
 451  4204.11
 452  4501.048
 453  4287.578
 454  4304.745
 455  4429.954
 456  4126.499
 457  4219.964
 458  4286.609
 459  4054.389
 460  3824.512
 461  3952.931
 462  4088.684
 463  4060.757
 464  4577.94
 465  4906.944
 466  4694.772
 467  4692.925
 468  4933.558
 469  4787.768
 470  5323.808
 471  5940.147
 472  6001.57
 473  5806.248
 474  5144.44
 475  4640.69
 476  4415.151
 477  4619.802
 478  4248.11
 479  4020.794
 480  4252.676
 481  4340.677
 482  4239.308
 483  4071.969
 484  4528.886
 485  4232.557
 486  4373.401
 487  4295.836
 488  3757.829
 489  4047.854
 490  4385.996
 491  4531.159
 492  4241.054
 493  3973.221
 494  4140.556
 495  4335.949
 496  4514.726
 497  4458.899
 498  4323.823
 499  4275.616
 500  4597.376
 501  4116.51
 502  3906.106
 503  3551.166
 504  3644.628
 505  4031.065
 506  4234.538
 507  4038.204
 508  4300.556
 509  4362.08
 510  4218.172
 511  3656.286
