# Input file       =  1200570921.112577_cleaned.dat
# Candidate        =  PSR_0332+5434
# Telescope        =  AR
# Epoch_topo       =  58139.496992043714
# Epoch_bary       =  N/A
# T_sample         =  0.002
# Data Folded      =  7143424
# Data Avg         =  0.100051468936727
# Data StdDev      =  4.48865785109    
# Profile Bins     =  512
# Profile Avg      =  1396.51789361197 
# Profile StdDev   =  530.193911594171 
# Reduced chi-sqr  =  3.221
# Prob(Noise)      <  2.37e-119   (~23.2 sigma)
# P_topo (ms)      =  714.570683820089  +/- 1.26e-05
# P'_topo (s/s)    =  -0                +/- 6.84e-12
# P''_topo (s/s^2) =  0                 +/- 3.1e-15
# P_bary (ms)      =  N/A
# P'_bary (s/s)    =  N/A
# P''_bary (s/s^2) =  N/A
# P_orb (s)        =  N/A
# asin(i)/c (s)    =  N/A
# eccentricity     =  N/A
# w (rad)          =  N/A
# T_peri           =  N/A
######################################################
   0  907.7267
   1  543.7094
   2  684.6757
   3  1212.688
   4  1846.878
   5  1952.88
   6  1067.993
   7  936.5997
   8  935.749
   9  564.8888
  10  545.5196
  11  1555.43
  12  2399.75
  13  2768.927
  14  2485.046
  15  1698.882
  16  677.5561
  17  527.0475
  18  425.2901
  19  1047.738
  20  1498.657
  21  2057.602
  22  1693.207
  23  709.5035
  24  310.86
  25  112.011
  26  481.0722
  27  958.7184
  28  2124.666
  29  3135.69
  30  2521.618
  31  1834.229
  32  1080.902
  33  843.6465
  34  799.1998
  35  724.1245
  36  1242.036
  37  1890.551
  38  2203.33
  39  1695.892
  40  1320.306
  41  829.4911
  42  659.5212
  43  519.1392
  44  1197.645
  45  2266.22
  46  2627.575
  47  2449.3
  48  1565.888
  49  813.5903
  50  965.1249
  51  1004.199
  52  758.6454
  53  1442.381
  54  1943.175
  55  1235.417
  56  859.2066
  57  564.3137
  58  599.6871
  59  759.5284
  60  1346.678
  61  1735.14
  62  1966.11
  63  2584.659
  64  1720.381
  65  819.666
  66  724.6206
  67  732.0184
  68  801.5846
  69  1364.763
  70  1936.086
  71  1707.114
  72  1594.664
  73  789.6215
  74  362.0255
  75  746.9883
  76  707.7311
  77  1402.117
  78  2250.856
  79  2468.255
  80  1883.85
  81  863.6724
  82  669.6287
  83  745.2479
  84  906.2014
  85  1036.199
  86  1630.43
  87  2216.814
  88  1520.842
  89  794.1895
  90  633.5461
  91  557.8568
  92  1104.479
  93  1180.076
  94  1698.966
  95  2577.499
  96  2397.905
  97  1444.637
  98  1010.654
  99  686.0511
 100  768.9274
 101  698.29
 102  1298.062
 103  1869.991
 104  2095.897
 105  1806.889
 106  952.2652
 107  687.9323
 108  545.7094
 109  389.0721
 110  1575.065
 111  2198.591
 112  2525.505
 113  2204.422
 114  1273.452
 115  922.0676
 116  872.1395
 117  694.9228
 118  753.5291
 119  1575.656
 120  2120.166
 121  1679.227
 122  1291.907
 123  537.4406
 124  589.2056
 125  916.0095
 126  1074.777
 127  1843.445
 128  2324.882
 129  2308.394
 130  1887.188
 131  1389.615
 132  1035.817
 133  929.3712
 134  931.2829
 135  1262.104
 136  1716.958
 137  2036.022
 138  1379.503
 139  657.7753
 140  849.1326
 141  1001.912
 142  921.5856
 143  1435.09
 144  2257.299
 145  2483.111
 146  2167.424
 147  1391.345
 148  1137.407
 149  1048.453
 150  935.5494
 151  912.9139
 152  1505.973
 153  1986.031
 154  1443.884
 155  1501.764
 156  753.3302
 157  626.9824
 158  913.6917
 159  1248.86
 160  1684.495
 161  2150.024
 162  2168.534
 163  1679.246
 164  1118.135
 165  774.8406
 166  880.6208
 167  754.9977
 168  1153.61
 169  1618.99
 170  2133.354
 171  1473.04
 172  795.725
 173  629.6281
 174  375.1653
 175  803.3146
 176  1440.656
 177  2460.476
 178  2555.09
 179  2323.253
 180  1143.85
 181  442.5435
 182  718.7357
 183  461.2325
 184  914.8168
 185  1564.8
 186  1675.27
 187  1945.53
 188  1366.008
 189  687.2048
 190  231.2882
 191  175.1005
 192  807.7045
 193  2058.192
 194  2907.077
 195  2197.281
 196  1800.633
 197  1052.466
 198  714.2664
 199  951.8876
 200  880.0511
 201  992.1616
 202  1853.019
 203  2097.317
 204  1501.355
 205  830.7908
 206  747.8492
 207  770.7345
 208  897.3417
 209  1437.442
 210  1740.01
 211  2460.635
 212  2051.254
 213  1484.662
 214  990.7113
 215  1084.423
 216  1141.376
 217  1011.523
 218  1495.347
 219  2197.328
 220  2055.966
 221  1301.106
 222  1052.028
 223  871.8997
 224  1011.456
 225  836.5781
 226  1805.987
 227  2528.342
 228  2605.894
 229  2177.813
 230  1286.878
 231  1010.07
 232  1134.417
 233  848.5475
 234  1221.589
 235  1677.082
 236  2237.22
 237  1555.774
 238  966.5573
 239  286.6895
 240  567.0965
 241  1291.515
 242  1678.078
 243  2333.943
 244  2776.721
 245  2301.652
 246  1387.144
 247  912.5312
 248  645.2173
 249  704.4505
 250  1040.262
 251  1808.002
 252  2294.771
 253  2073.031
 254  1368.718
 255  610.7958
 256  683.7772
 257  712.9153
 258  1082.72
 259  2473.791
 260  3051.025
 261  2831.881
 262  1940.996
 263  1207.425
 264  1002.504
 265  685.149
 266  893.5311
 267  1457.775
 268  2436.531
 269  2478.234
 270  1726.109
 271  1121.582
 272  477.3709
 273  394.0713
 274  674.9022
 275  1500.768
 276  2323.418
 277  2651.623
 278  2284.729
 279  1595.846
 280  1140.111
 281  992.4987
 282  792.2439
 283  709.9232
 284  1444.986
 285  2215.681
 286  1895.237
 287  1152.321
 288  582.618
 289  611.6195
 290  747.1096
 291  981.4599
 292  2117.319
 293  2897.642
 294  2910.798
 295  2069.202
 296  1389.831
 297  1016.633
 298  968.169
 299  729.6758
 300  1188.126
 301  2190.177
 302  2332.16
 303  1612.096
 304  1628.911
 305  1519.421
 306  1416.561
 307  1529.57
 308  2191.447
 309  3205.626
 310  3747.614
 311  3155.603
 312  1946.425
 313  1036.99
 314  718.4454
 315  676.0677
 316  892.2701
 317  1438.811
 318  2001.954
 319  2152.492
 320  1333.077
 321  729.0379
 322  637.1451
 323  650.7122
 324  932.4908
 325  1797.154
 326  2724.01
 327  3001.791
 328  2324.403
 329  1114.339
 330  744.5976
 331  910.759
 332  1083.329
 333  1308.788
 334  2201.458
 335  2188.794
 336  1583.917
 337  1031.532
 338  834.7227
 339  475.0049
 340  609.7885
 341  1158.686
 342  2401.096
 343  2869.392
 344  2374.474
 345  1468.775
 346  1028.458
 347  806.3213
 348  891.356
 349  1005.258
 350  1669.6
 351  2114.16
 352  2159.687
 353  1220.594
 354  303.5674
 355  358.1447
 356  397.3057
 357  776.6265
 358  1687.024
 359  2611.579
 360  2437.969
 361  2006.854
 362  1115.166
 363  618.6364
 364  581.0581
 365  409.5353
 366  951.7154
 367  1557.522
 368  2227.438
 369  1792.635
 370  972.5375
 371  419.6264
 372  337.9893
 373  383.1392
 374  1320.143
 375  2341.309
 376  2905.327
 377  2455.048
 378  1629.748
 379  767.9261
 380  731.3327
 381  575.6631
 382  797.687
 383  1550.039
 384  2160.061
 385  1919.733
 386  1228.342
 387  818.6196
 388  440.48
 389  389.2963
 390  967.2265
 391  1356.477
 392  2402.394
 393  2842.538
 394  2221.143
 395  1267.365
 396  705.7446
 397  746.6121
 398  602.9507
 399  1103.909
 400  1787.367
 401  1996.397
 402  1779.472
 403  1166.582
 404  410.8423
 405  611.3413
 406  677.4427
 407  1127.267
 408  2088.737
 409  2360.733
 410  2339.365
 411  1886.503
 412  1207.744
 413  880.6309
 414  1051.782
 415  1330.088
 416  1585.782
 417  2326.116
 418  1732.591
 419  940.0212
 420  734.5544
 421  550.3658
 422  840.4758
 423  1129.409
 424  1931.576
 425  2555.141
 426  2800.75
 427  2160.375
 428  1214.914
 429  694.6652
 430  523.1381
 431  705.5459
 432  1296.349
 433  2012.802
 434  2387.613
 435  1778.993
 436  919.4772
 437  517.9725
 438  859.9139
 439  1206.646
 440  1550.092
 441  2442.534
 442  2594.936
 443  2295.85
 444  1748.435
 445  938.9741
 446  594.8917
 447  926.774
 448  1015.817
 449  1667.108
 450  2333.251
 451  2000.943
 452  1635.958
 453  821.2672
 454  623.913
 455  841.8547
 456  1143.193
 457  1971.091
 458  2625.074
 459  2799.024
 460  2239.983
 461  1667.463
 462  874.7711
 463  809.6818
 464  650.6946
 465  840.5157
 466  1341.6
 467  2175.497
 468  2186.981
 469  1373.864
 470  664.071
 471  675.9532
 472  706.5775
 473  1123.149
 474  2229.292
 475  2951.627
 476  2866.959
 477  1764.481
 478  1079.286
 479  1185.726
 480  829.5803
 481  666.278
 482  1574.519
 483  2048.351
 484  1804.181
 485  1374.154
 486  957.5129
 487  864.3408
 488  802.7715
 489  1250.455
 490  1752.634
 491  2322.583
 492  2170.64
 493  1840.396
 494  1455.402
 495  998.9357
 496  847.3566
 497  837.4231
 498  1197.969
 499  1787.326
 500  1936.2
 501  1467.16
 502  750.4261
 503  746.0002
 504  610.9234
 505  574.9594
 506  1329.674
 507  2194.483
 508  2427.882
 509  2199.394
 510  1623.16
 511  1210.93
