# Input file       =  1201289859.116976-PSRB0329-2ms-sampling-dd.dat
# Candidate        =  PSR_0332+5434
# Telescope        =  AR
# Epoch_topo       =  58147.818033761294
# Epoch_bary       =  N/A
# T_sample         =  0.002
# Data Folded      =  7340032
# Data Avg         =  3.9163563131046e-09
# Data StdDev      =  162.737517767821 
# Profile Bins     =  512
# Profile Avg      =  -0.0613195893268261
# Profile StdDev   =  19485.0571347591 
# Reduced chi-sqr  =  1.163
# Prob(Noise)      <  0.00638   (~2.5 sigma)
# P_topo (ms)      =  714.575305535539  +/- 0.000366
# P'_topo (s/s)    =  -0                +/- 1.93e-10
# P''_topo (s/s^2) =  0                 +/- 8.53e-14
# P_bary (ms)      =  N/A
# P'_bary (s/s)    =  N/A
# P''_bary (s/s^2) =  N/A
# P_orb (s)        =  N/A
# asin(i)/c (s)    =  N/A
# eccentricity     =  N/A
# w (rad)          =  N/A
# T_peri           =  N/A
######################################################
   0  -9506.213
   1  -8932.191
   2  -8830.873
   3  -8753.098
   4  -8840.503
   5  -9203.646
   6  -9362.46
   7  -9415.204
   8  -9467.8
   9  -9523.244
  10  -9463.944
  11  -9361.202
  12  -9280.706
  13  -9559.519
  14  -9763.88
  15  -9677.909
  16  -9578.468
  17  -9703.064
  18  -9580.828
  19  -9276.362
  20  -9312.85
  21  -9830.168
  22  -10179.44
  23  -9657.706
  24  -9692.329
  25  -9650.419
  26  -10101.38
  27  -10392.4
  28  -9801.848
  29  -9487.46
  30  -9245.352
  31  -9270.713
  32  -9274.336
  33  -9602.521
  34  -9789.338
  35  -9556.16
  36  -9237.288
  37  -9469.318
  38  -9341.512
  39  -8836.406
  40  -8911.974
  41  -9092.326
  42  -9193.33
  43  -9142.966
  44  -9011.992
  45  -8817.681
  46  -9322.832
  47  -9327.958
  48  -9501.335
  49  -9969.407
  50  -9548.194
  51  -9143.881
  52  -9346.222
  53  -8502.473
  54  -9200.117
  55  -9886.181
  56  -8071.701
  57  -1829.234
  58  6878.791
  59  38980.38
  60  52831.96
  61  60422.07
  62  51959.87
  63  32620.37
  64  22272.46
  65  18886.62
  66  58835.27
  67  62769.93
  68  59948.99
  69  34483.73
  70  21357.31
  71  11950.4
  72  9739.578
  73  17848.25
  74  20261.49
  75  14590.73
  76  7856.434
  77  6842.08
  78  9668.645
  79  16312.93
  80  18119.4
  81  18994.55
  82  6812.917
  83  1781.796
  84  -1998.751
  85  -5750.149
  86  -7775.905
  87  -8207
  88  -9145.368
  89  -10339.14
  90  -9898.156
  91  -10150.01
  92  -10894.14
  93  -3412.513
  94  4510.003
  95  10659.48
  96  11704.71
  97  12915.29
  98  6788.94
  99  -12216.83
 100  1759.776
 101  8413.672
 102  15301.85
 103  11917.17
 104  4840.436
 105  -969.479
 106  -6432.613
 107  -9767.189
 108  -2247.596
 109  8141.729
 110  24487.84
 111  24510.69
 112  23214.21
 113  17144.17
 114  -3697.429
 115  -3601.629
 116  22961.3
 117  26225.82
 118  22626
 119  17189.18
 120  -1831.509
 121  -7150.242
 122  -11104.01
 123  -9806.723
 124  -10421.83
 125  -10587.01
 126  -10393.59
 127  -10087.67
 128  -9976.371
 129  -9893.679
 130  -10231.67
 131  -10394.95
 132  -10212.4
 133  -10179.27
 134  -10488.93
 135  -9788.884
 136  -9534.729
 137  -10401.24
 138  -9242.302
 139  -9402.481
 140  -9109.085
 141  1277.391
 142  5353.151
 143  7172.58
 144  8231.498
 145  1844.853
 146  2770.725
 147  12105.38
 148  29664.44
 149  37402.78
 150  33555.92
 151  20384.02
 152  3669.653
 153  1027.409
 154  18167.73
 155  21515.7
 156  18333.2
 157  14373.33
 158  -3025.29
 159  -6798.334
 160  -9476.381
 161  -9870.122
 162  -9330.723
 163  -9218.138
 164  -9479.631
 165  -9456.518
 166  -9113.66
 167  -9039.94
 168  -9335.154
 169  -9267.704
 170  -8860.776
 171  -8814.726
 172  -9159.185
 173  -8604.624
 174  -9088.655
 175  -9340.08
 176  -8875.576
 177  -9644.292
 178  -9630.63
 179  -9545.098
 180  -10026.4
 181  -8936.046
 182  -5395.646
 183  -2032.115
 184  14517.81
 185  29627.55
 186  42247.75
 187  38970.01
 188  33308.37
 189  19167.69
 190  6414.466
 191  22358.36
 192  42107.87
 193  46820.34
 194  33143.02
 195  21451.27
 196  2636.602
 197  -5958.494
 198  -8601.146
 199  -8601.632
 200  -9576.096
 201  -9523.638
 202  -9492.562
 203  -9202.353
 204  -8712.077
 205  -8558.209
 206  -9359.35
 207  -9428.207
 208  -8794.57
 209  -9108.341
 210  -9210.034
 211  -9577.809
 212  -9117.08
 213  -9072.965
 214  -9305.968
 215  -9056.411
 216  -9071.077
 217  -9400.435
 218  -9434.183
 219  -9378.848
 220  -9550.273
 221  -9204.814
 222  -9468.909
 223  -9453.777
 224  -9446.49
 225  -9456.585
 226  -9557.49
 227  -9494.771
 228  -9181.974
 229  -9555.071
 230  -9366.788
 231  -9330.822
 232  -9604.688
 233  -9331.688
 234  -9543.589
 235  -9652.777
 236  -9394.615
 237  -9384.153
 238  -9180.584
 239  -9293.887
 240  -9110.457
 241  -9330.047
 242  -8703.913
 243  -8944.556
 244  -8897.088
 245  -8574.06
 246  -9098.278
 247  -9088.248
 248  -9152.013
 249  -8947.659
 250  -9172.328
 251  -9233.662
 252  -9195.324
 253  -9215.383
 254  -9216.854
 255  -9436.128
 256  -9553.24
 257  -9840.052
 258  -9727.939
 259  -9784.107
 260  -9992.301
 261  -10110.35
 262  -9845.067
 263  -10140
 264  -9413.061
 265  -9695.463
 266  -11007.08
 267  -4585.747
 268  -1863.972
 269  392.6737
 270  3695.508
 271  372.1899
 272  -3445.447
 273  -12722.65
 274  -3214.162
 275  1664.752
 276  2307.973
 277  1384.565
 278  -1443.449
 279  -5831.614
 280  -11240.6
 281  -10178.93
 282  -9477.917
 283  -10297.85
 284  -9727.497
 285  -10055.4
 286  -10538.15
 287  -10182.16
 288  -10474.53
 289  -10431.61
 290  -9191.594
 291  -7011.956
 292  6586.356
 293  10029.44
 294  10616.71
 295  12007.86
 296  804.0212
 297  -8693.661
 298  1044.651
 299  11063.46
 300  15348.32
 301  9314.062
 302  2670.229
 303  481.1255
 304  -3573.466
 305  2560.991
 306  3440.381
 307  1828.571
 308  -697.5862
 309  -9713.906
 310  -7752.54
 311  -765.3513
 312  -1003.509
 313  322.5329
 314  2054.996
 315  -4617.745
 316  -1343.372
 317  3958.95
 318  15852.01
 319  22997.81
 320  19318.97
 321  19352.83
 322  11836.95
 323  7964.64
 324  17820.3
 325  23903.29
 326  23983.22
 327  16688.11
 328  27662.74
 329  31926.19
 330  28420.95
 331  36639.95
 332  30770.26
 333  20771.03
 334  -6674.899
 335  14932.13
 336  27092.86
 337  29397.2
 338  27784.99
 339  20892.17
 340  7242.571
 341  -5224.382
 342  -6501.694
 343  -7167.021
 344  -9156.104
 345  -8899.085
 346  -8446.196
 347  -9480.478
 348  -9043.759
 349  -9424.755
 350  -8700.118
 351  -5418.79
 352  -1083.438
 353  1355.381
 354  695.4877
 355  -140.369
 356  -5660.29
 357  -5606.21
 358  -4479.684
 359  1841.282
 360  4391.282
 361  3766.256
 362  5148.821
 363  4075.319
 364  4062.185
 365  3649.996
 366  2686.763
 367  -1493.444
 368  -1920.688
 369  -1436.86
 370  537.1466
 371  3198.937
 372  892.2715
 373  -792.7358
 374  -4955.731
 375  -7355.951
 376  -7483.303
 377  -4089.746
 378  7484.221
 379  10617.51
 380  12760.53
 381  9818.545
 382  2233.83
 383  -5280.329
 384  1210.369
 385  28338.66
 386  44096.13
 387  53948.18
 388  48446.14
 389  37489.77
 390  22882.09
 391  -11162.67
 392  13064.82
 393  35443.8
 394  45110.04
 395  37292.61
 396  26089.61
 397  3554.679
 398  -7101.869
 399  -8765.588
 400  -7080.009
 401  -7812.73
 402  -7950.567
 403  -8109.434
 404  -8620.249
 405  -8800.107
 406  -8968.354
 407  -9077.754
 408  -9135.355
 409  -9236.275
 410  -9064.949
 411  -9029.539
 412  -8668.021
 413  -9280.733
 414  -9019.479
 415  -8327.971
 416  -8293.18
 417  -8354.632
 418  -8533.023
 419  -7717.534
 420  -7499.271
 421  -7813.719
 422  -7529.438
 423  -8450.819
 424  -9444.374
 425  -8190.958
 426  -7417.018
 427  -6653.107
 428  -6340.016
 429  -6339.901
 430  -5852.53
 431  -5096.412
 432  -5662.342
 433  -5233.279
 434  -5161.523
 435  -7833.366
 436  -7711.284
 437  -7779.097
 438  -5191.946
 439  -6962.933
 440  -8279.829
 441  -7927.047
 442  -10624.92
 443  -10906.93
 444  -9089.132
 445  -10966.27
 446  -10573.97
 447  -8313.281
 448  -11297.3
 449  5262.839
 450  27266.49
 451  39846.28
 452  43464.05
 453  41282.65
 454  10800
 455  -2417.845
 456  8000.458
 457  51188.39
 458  46834.8
 459  41580.67
 460  34081.9
 461  405.8613
 462  -5433.459
 463  -9040.858
 464  -8512.386
 465  -8251.773
 466  -7877.865
 467  -7465.385
 468  -8551.467
 469  -9214.822
 470  -9861.921
 471  -9852.717
 472  -9744.989
 473  -10058.9
 474  -9742.213
 475  -10075.71
 476  -10301.84
 477  -10118.98
 478  -10128.47
 479  -9714.737
 480  -9522.347
 481  -9620.59
 482  -9775.813
 483  -9691.817
 484  -9931.438
 485  -10094.32
 486  -9840.946
 487  -10122.65
 488  -10005.76
 489  -9755.899
 490  -10291.05
 491  -10265.41
 492  -9999.119
 493  -9859.653
 494  -9812.645
 495  -9704.701
 496  -10003.19
 497  -9941.89
 498  -9476.969
 499  -9385.354
 500  -9438.06
 501  -9165.956
 502  -9175.026
 503  -9395.404
 504  -9663.257
 505  -9442.598
 506  -9452.879
 507  -9365.434
 508  -9313.722
 509  -9378.76
 510  -9373.479
 511  -9355.416
