# Input file       =  1201289859.116976_cleaned.dat
# Candidate        =  PSR_0332+5434
# Telescope        =  AR
# Epoch_topo       =  58147.818033761294
# Epoch_bary       =  N/A
# T_sample         =  0.002
# Data Folded      =  7340032
# Data Avg         =  0.0649287345222549
# Data StdDev      =  3.1207568051385  
# Profile Bins     =  512
# Profile Avg      =  930.820522333052 
# Profile StdDev   =  373.657688072688 
# Reduced chi-sqr  =  0.977
# Prob(Noise)      <  0.636   (~0.0 sigma)
# P_topo (ms)      =  714.575305535539  +/- 0.000653
# P'_topo (s/s)    =  -0                +/- 3.44e-10
# P''_topo (s/s^2) =  0                 +/- 1.52e-13
# P_bary (ms)      =  N/A
# P'_bary (s/s)    =  N/A
# P''_bary (s/s^2) =  N/A
# P_orb (s)        =  N/A
# asin(i)/c (s)    =  N/A
# eccentricity     =  N/A
# w (rad)          =  N/A
# T_peri           =  N/A
######################################################
   0  611.9877
   1  1005.007
   2  1137.597
   3  1052.494
   4  840.999
   5  792.8824
   6  791.8119
   7  708.4588
   8  832.8538
   9  677.3209
  10  811.1804
  11  845.9908
  12  1045.729
  13  1003.444
  14  994.7126
  15  1419.478
  16  1332.997
  17  877.5809
  18  954.6079
  19  1127.821
  20  1209.033
  21  765.7532
  22  734.1422
  23  1259.458
  24  1086.484
  25  800.5201
  26  470.6734
  27  327.8731
  28  733.0638
  29  1037.759
  30  1167.035
  31  962.7086
  32  858.581
  33  393.7231
  34  493.6765
  35  837.5952
  36  687.572
  37  557.4528
  38  665.3137
  39  1027.53
  40  916.1625
  41  966.7696
  42  910.3649
  43  924.5313
  44  899.2487
  45  1119.724
  46  964.9934
  47  808.2968
  48  623.1994
  49  587.5319
  50  482.3959
  51  712.9143
  52  886.3246
  53  948.5999
  54  856.4078
  55  838.9458
  56  573.7193
  57  1034.856
  58  1137.615
  59  839.9716
  60  805.652
  61  813.0801
  62  782.6072
  63  400.2362
  64  695.3358
  65  968.1653
  66  1098.866
  67  1037.919
  68  685.8755
  69  741.922
  70  880.4219
  71  695.4111
  72  699.8328
  73  934.7794
  74  1178.33
  75  1001.603
  76  740.4535
  77  514.2657
  78  506.1558
  79  859.436
  80  1033.981
  81  1163.812
  82  969.2028
  83  872.5012
  84  744.7027
  85  1061.24
  86  686.1348
  87  704.834
  88  1015.597
  89  867.7828
  90  799.8906
  91  895.8399
  92  925.295
  93  797.5631
  94  881.093
  95  624.8332
  96  834.1447
  97  879.6393
  98  668.3765
  99  652.3794
 100  685.5604
 101  816.1015
 102  836.8787
 103  744.7909
 104  854.8116
 105  1244.73
 106  1308.805
 107  974.6121
 108  1074.391
 109  963.7054
 110  1063.139
 111  856.9487
 112  1013.944
 113  1174.396
 114  876.4813
 115  1000.209
 116  1077.177
 117  763.6556
 118  336.7689
 119  523.916
 120  611.3216
 121  778.5441
 122  910.4679
 123  769.3597
 124  501.7838
 125  427.3921
 126  436.6661
 127  660.0107
 128  1028.005
 129  855.9361
 130  683.4382
 131  955.0211
 132  669.8193
 133  617.5852
 134  835.5447
 135  789.1443
 136  898.0699
 137  838.7859
 138  1051.435
 139  1284.631
 140  1025.691
 141  1040.623
 142  845.3668
 143  821.2446
 144  642.3798
 145  652.4933
 146  1029.854
 147  1340.25
 148  1055.718
 149  1073.811
 150  870.4666
 151  602.5945
 152  923.1633
 153  891.8422
 154  862.3716
 155  1110.897
 156  984.6832
 157  813.4198
 158  1237.932
 159  1402.785
 160  983.9562
 161  451.0018
 162  873.6721
 163  913.7337
 164  726.4254
 165  684.8209
 166  696.441
 167  975.9158
 168  692.1476
 169  699.6409
 170  1006.515
 171  1187.079
 172  1250.081
 173  1467.783
 174  1234.141
 175  1186.167
 176  1209.602
 177  962.521
 178  888.4834
 179  644.7513
 180  951.5585
 181  1172.793
 182  1027.598
 183  1106.774
 184  953.9819
 185  1020.754
 186  748.1205
 187  565.8272
 188  834.9495
 189  749.7131
 190  1075.564
 191  895.697
 192  820.999
 193  581.8766
 194  602.05
 195  799.0978
 196  756.6374
 197  446.9563
 198  902.1833
 199  884.8469
 200  913.7692
 201  614.473
 202  535.0834
 203  789.5748
 204  1096.336
 205  1325.722
 206  903.2726
 207  957.865
 208  1199.735
 209  1081.318
 210  681.381
 211  552.5894
 212  755.9995
 213  747.0231
 214  923.3677
 215  988.6769
 216  975.0376
 217  769.7797
 218  920.03
 219  933.2355
 220  761.8599
 221  985.6312
 222  780.7572
 223  779.4023
 224  821.7947
 225  924.3293
 226  1148.988
 227  986.2982
 228  1194.156
 229  852.2974
 230  1040.356
 231  1030.306
 232  831.8966
 233  1121.446
 234  1052.72
 235  678.0146
 236  953.6443
 237  1019.114
 238  1289.304
 239  1148.254
 240  1170.947
 241  1172.171
 242  1383.464
 243  1046.465
 244  1176.841
 245  1547.475
 246  1146.525
 247  1266.192
 248  1337.523
 249  1232.537
 250  1099.306
 251  1055.253
 252  1108.319
 253  903.105
 254  1005.102
 255  1032.25
 256  842.2958
 257  874.5691
 258  1018.713
 259  985.9058
 260  1069.031
 261  877.8795
 262  956.3328
 263  1180.563
 264  1586.906
 265  1207.715
 266  902.3687
 267  1026.524
 268  1168.001
 269  1475.839
 270  1343.352
 271  1069.369
 272  795.3015
 273  928.7785
 274  1194.276
 275  1151.806
 276  879.2948
 277  814.3607
 278  761.0063
 279  669.9416
 280  744.0814
 281  1297.283
 282  1099.924
 283  935.3495
 284  1044.167
 285  944.6308
 286  788.0121
 287  1033.272
 288  830.1974
 289  730.4915
 290  920.5992
 291  976.3243
 292  934.5271
 293  832.6719
 294  873.2804
 295  966.7674
 296  667.6447
 297  691.5344
 298  793.2053
 299  961.0738
 300  961.2155
 301  699.6663
 302  706.7955
 303  767.0132
 304  557.4088
 305  847.3462
 306  789.0538
 307  831.1475
 308  1393.457
 309  1223.159
 310  930.3675
 311  958.6107
 312  743.0304
 313  1094.021
 314  963.3293
 315  960.9639
 316  1270.565
 317  1041.364
 318  913.4974
 319  1063.014
 320  1165.233
 321  1162
 322  1043.95
 323  1286.002
 324  1205.867
 325  831.1628
 326  779.1871
 327  977.7829
 328  918.3793
 329  1212.726
 330  1596.787
 331  1263.79
 332  1137.99
 333  1073.475
 334  911.094
 335  1394.972
 336  1066.463
 337  915.418
 338  806.3232
 339  852.0038
 340  1026.62
 341  778.4232
 342  1451.367
 343  1439.435
 344  1377.575
 345  1149.511
 346  1011.681
 347  1000.433
 348  927.599
 349  614.5664
 350  918.3258
 351  902.202
 352  1154.815
 353  1051.196
 354  895.4677
 355  626.4179
 356  841.8983
 357  851.8152
 358  477.0126
 359  444.0736
 360  972.3783
 361  1064.322
 362  859.7863
 363  716.1817
 364  652.5985
 365  742.9103
 366  816.4862
 367  1046.597
 368  968.4207
 369  839.9827
 370  984.0497
 371  913.2892
 372  953.9341
 373  1054.475
 374  655.1305
 375  504.6926
 376  443.1259
 377  805.7642
 378  1000.651
 379  931.6735
 380  1150.73
 381  1489.233
 382  1673.232
 383  1275.524
 384  1475.927
 385  1355.204
 386  1101.872
 387  1153.975
 388  1125.596
 389  974.085
 390  996.2458
 391  1121.259
 392  1202.735
 393  872.5521
 394  1083.019
 395  1632.588
 396  1618.15
 397  1384.652
 398  1250.6
 399  1714.899
 400  2264.975
 401  2714.907
 402  2414.836
 403  1990.407
 404  1672.394
 405  1213.585
 406  1149.97
 407  1119.721
 408  877.7218
 409  856.5449
 410  1061.039
 411  1215.843
 412  1321.862
 413  866.5266
 414  940.5105
 415  1348.304
 416  1266.693
 417  987.9961
 418  699.2849
 419  692.4232
 420  690.1509
 421  646.1298
 422  652.3433
 423  705.8141
 424  976.4528
 425  1076.987
 426  1039.964
 427  790.1115
 428  985.4712
 429  838.2294
 430  830.2328
 431  1096.325
 432  1159.774
 433  1098.766
 434  1151.626
 435  866.725
 436  636.7109
 437  326.1573
 438  562.342
 439  721.3831
 440  718.562
 441  515.3348
 442  429.3003
 443  858.7068
 444  1158.112
 445  1096.483
 446  915.3461
 447  671.0894
 448  530.9812
 449  615.4183
 450  814.7273
 451  985.3103
 452  946.4892
 453  1128.755
 454  1081.237
 455  817.2097
 456  1002.958
 457  785.1282
 458  910.9936
 459  955.7932
 460  814.4494
 461  924.0608
 462  758.3062
 463  775.8109
 464  1064.355
 465  1056.166
 466  883.1355
 467  881.6301
 468  809.853
 469  862.5084
 470  801.0708
 471  644.2466
 472  852.3981
 473  879.6398
 474  820.9255
 475  772.1258
 476  797.4471
 477  794.4859
 478  871.0059
 479  946.5353
 480  1222.498
 481  971.6762
 482  797.5313
 483  933.8937
 484  889.4762
 485  689.2838
 486  712.5386
 487  635.7858
 488  681.6331
 489  814.6256
 490  507.4925
 491  339.9456
 492  781.2517
 493  807.7106
 494  1036.182
 495  947.3174
 496  560.9149
 497  664.9086
 498  905.088
 499  795.105
 500  643.7793
 501  1133.043
 502  1164.55
 503  689.2875
 504  635.441
 505  684.5461
 506  585.0133
 507  651.0568
 508  607.0486
 509  800.3029
 510  851.3022
 511  789.3854
