# Input file       =  1201289859.116976_cleaned.dat
# Candidate        =  PSR_0332+5434
# Telescope        =  AR
# Epoch_topo       =  58147.818033761294
# Epoch_bary       =  N/A
# T_sample         =  0.002
# Data Folded      =  7340032
# Data Avg         =  0.0649287345222549
# Data StdDev      =  3.1207568051385  
# Profile Bins     =  512
# Profile Avg      =  930.820522269554 
# Profile StdDev   =  373.657688072688 
# Reduced chi-sqr  =  0.980
# Prob(Noise)      <  0.617   (~0.0 sigma)
# P_topo (ms)      =  714.575305633459  +/- 0.000293
# P'_topo (s/s)    =  -0                +/- 1.55e-10
# P''_topo (s/s^2) =  0                 +/- 6.83e-14
# P_bary (ms)      =  N/A
# P'_bary (s/s)    =  N/A
# P''_bary (s/s^2) =  N/A
# P_orb (s)        =  N/A
# asin(i)/c (s)    =  N/A
# eccentricity     =  N/A
# w (rad)          =  N/A
# T_peri           =  N/A
######################################################
   0  748.1625
   1  676.8859
   2  880.1497
   3  840.0911
   4  584.3388
   5  725.474
   6  654.9502
   7  935.1945
   8  717.527
   9  781.6987
  10  996.6178
  11  1342.028
  12  1191.185
  13  926.2938
  14  1086.817
  15  988.8077
  16  1023.494
  17  836.4009
  18  1169.917
  19  1014.139
  20  906.6296
  21  1062.158
  22  1021.959
  23  580.4368
  24  346.7325
  25  585.1534
  26  645.215
  27  829.1926
  28  861.4178
  29  689.9113
  30  455.2086
  31  440.2671
  32  451.4484
  33  831.3215
  34  996.5269
  35  743.7343
  36  818.361
  37  928.8201
  38  581.5198
  39  703.8512
  40  801.0918
  41  842.1185
  42  903.1248
  43  851.2954
  44  1185.082
  45  1179.144
  46  1044.659
  47  938.9772
  48  864.392
  49  743.3288
  50  610.8557
  51  768.186
  52  1197.257
  53  1307.329
  54  961.8246
  55  1069.709
  56  699.9365
  57  717.7419
  58  957.1495
  59  849.9047
  60  959.4317
  61  1180.433
  62  828.9119
  63  918.6841
  64  1338.565
  65  1342.897
  66  732.1536
  67  515.5056
  68  948.8074
  69  845.0652
  70  686.4112
  71  696.5933
  72  782.68
  73  948.2669
  74  602.269
  75  817.7816
  76  1080.064
  77  1213.532
  78  1324.746
  79  1460.396
  80  1145.023
  81  1222.705
  82  1127.382
  83  923.6808
  84  836.0555
  85  675.4518
  86  1073.716
  87  1089.237
  88  1113.652
  89  1016.356
  90  999.7265
  91  945.1809
  92  637.4607
  93  660.6435
  94  821.4827
  95  828.3196
  96  1103.779
  97  818.486
  98  785.1289
  99  470.6023
 100  716.0193
 101  814.8617
 102  622.5497
 103  560.9471
 104  960.5423
 105  921.0151
 106  811.7378
 107  554.7302
 108  563.9813
 109  942.15
 110  1167.782
 111  1261.094
 112  819.9699
 113  1076.006
 114  1221.924
 115  914.4088
 116  603.1654
 117  591.7797
 118  753.611
 119  841.48
 120  942.9866
 121  1051.027
 122  852.832
 123  789.6635
 124  963.379
 125  864.5245
 126  801.4811
 127  1006.684
 128  657.2531
 129  899.4659
 130  765.8986
 131  1090.324
 132  1076.76
 133  1052.455
 134  1101.061
 135  868.6332
 136  1072.131
 137  948.5909
 138  834.6802
 139  1259.333
 140  847.5318
 141  743.8977
 142  984.4691
 143  1130.268
 144  1279.449
 145  1130.475
 146  1166.041
 147  1238.038
 148  1339.235
 149  938.9366
 150  1428.061
 151  1389.001
 152  1158.046
 153  1293.102
 154  1328.008
 155  1175.445
 156  1069.882
 157  1123.499
 158  1026.235
 159  915.7292
 160  993.4504
 161  998.942
 162  812.8102
 163  930.5129
 164  1017.73
 165  1010.536
 166  1054.416
 167  821.7023
 168  1046.828
 169  1289.383
 170  1588.486
 171  1000.95
 172  959.9708
 173  1082.256
 174  1291.196
 175  1488.97
 176  1170.987
 177  988.3714
 178  789.509
 179  1031.896
 180  1215.917
 181  1057.933
 182  841.4886
 183  840.223
 184  708.0022
 185  659.2936
 186  883.4192
 187  1323.1
 188  1002.35
 189  971.1634
 190  1093.306
 191  796.3029
 192  894.294
 193  1013.63
 194  706.9042
 195  829.873
 196  935.9316
 197  1019.713
 198  872.0063
 199  809.9044
 200  931.7474
 201  872.9186
 202  670.491
 203  672.8838
 204  895.9402
 205  985.5936
 206  912.7319
 207  591.7882
 208  817.5972
 209  625.9806
 210  675.8622
 211  868.0632
 212  720.3754
 213  1002.107
 214  1500.854
 215  988.1807
 216  1011.656
 217  837.7322
 218  865.4738
 219  1067.513
 220  915.868
 221  1090.38
 222  1268.76
 223  902.0351
 224  980.9479
 225  1123.7
 226  1222.86
 227  1074.989
 228  1073.806
 229  1325.071
 230  1074.611
 231  752.5649
 232  885.4622
 233  954.23
 234  962.3191
 235  1411.565
 236  1518.778
 237  1158.317
 238  1181.273
 239  948.1055
 240  1095.322
 241  1368.928
 242  927.6464
 243  936.3654
 244  699.3905
 245  1039.337
 246  839.1658
 247  999.5121
 248  1582.424
 249  1356.637
 250  1322.37
 251  1039.952
 252  1041.256
 253  989.4462
 254  767.9664
 255  695.8278
 256  969.6478
 257  959.6125
 258  1171.108
 259  970.5523
 260  821.675
 261  612.8242
 262  940.3716
 263  694.7723
 264  428.6729
 265  611.6876
 266  1079.335
 267  993.7479
 268  796.293
 269  690.4648
 270  651.4484
 271  777.3615
 272  887.4194
 273  1102.816
 274  850.829
 275  921.6221
 276  928.8378
 277  924.9686
 278  1007.317
 279  979.0699
 280  533.397
 281  485.0971
 282  505.3459
 283  963.8964
 284  957.859
 285  967.4119
 286  1299.4
 287  1573.187
 288  1588.032
 289  1212.452
 290  1543.404
 291  1195.385
 292  1125.712
 293  1170.58
 294  1064.485
 295  968.9508
 296  1041.279
 297  1196.978
 298  1066.969
 299  875.7894
 300  1299.929
 301  1735.009
 302  1476.099
 303  1334.932
 304  1347.892
 305  1890.385
 306  2476.354
 307  2678.092
 308  2259.661
 309  1889.591
 310  1486.105
 311  1189.104
 312  1128.12
 313  1045.537
 314  810.8794
 315  953.663
 316  1118.926
 317  1290.854
 318  1180.815
 319  793.0825
 320  1094.749
 321  1379.163
 322  1163.647
 323  916.3936
 324  634.119
 325  749.3676
 326  635.1728
 327  684.5631
 328  610.4139
 329  818.0638
 330  993.2555
 331  1093.16
 332  945.9201
 333  813.6449
 334  1042.717
 335  761.3303
 336  923.0883
 337  1135.732
 338  1140.082
 339  1137.165
 340  1046.568
 341  819.2847
 342  485.77
 343  349.5308
 344  654.8593
 345  709.3253
 346  691.8604
 347  430.2051
 348  507.4567
 349  1027.755
 350  1145.337
 351  1083.418
 352  806.859
 353  616.2817
 354  551.2385
 355  696.2401
 356  841.5612
 357  1027.637
 358  933.891
 359  1224.161
 360  921.0176
 361  908.2881
 362  935.2524
 363  771.1109
 364  981.6558
 365  901.9352
 366  823.4868
 367  889.6943
 368  714.418
 369  892.9997
 370  1137.724
 371  948.1589
 372  887.0832
 373  846.3526
 374  842.2518
 375  817.135
 376  744.6215
 377  663.1492
 378  956.3317
 379  820.8734
 380  797.2998
 381  790.2961
 382  784.1221
 383  831.5331
 384  840.2601
 385  1122.257
 386  1160.996
 387  871.5461
 388  808.1502
 389  974.9306
 390  839.7863
 391  660.3348
 392  691.8858
 393  608.0977
 394  744.8385
 395  790.2759
 396  366.415
 397  505.1927
 398  781.9927
 399  879.8023
 400  1028.866
 401  849.0193
 402  536.8359
 403  744.3765
 404  936.6832
 405  636.995
 406  854.2859
 407  1135.403
 408  1098.876
 409  554.9523
 410  752.2538
 411  611.8528
 412  613.2258
 413  624.4358
 414  642.0654
 415  855.5623
 416  844.1599
 417  721.4472
 418  673.6222
 419  1137.151
 420  1092.709
 421  982.3745
 422  793.3466
 423  785.6357
 424  797.8332
 425  745.4166
 426  790.9467
 427  646.1506
 428  849.017
 429  931.9666
 430  1052.217
 431  938.7828
 432  1105.012
 433  1515.881
 434  1133.187
 435  863.4241
 436  1035.458
 437  1186.52
 438  1088.421
 439  667.5968
 440  929.6851
 441  1290.757
 442  927.8089
 443  710.7887
 444  352.0403
 445  451.2593
 446  843.6072
 447  1116.421
 448  1127.548
 449  908.0006
 450  765.3328
 451  274.8694
 452  711.3768
 453  775.5102
 454  637.8022
 455  564.0599
 456  822.1516
 457  1033.373
 458  857.9308
 459  1022.079
 460  855.0449
 461  1002.381
 462  853.5403
 463  1201.102
 464  864.7858
 465  767.0132
 466  557.8438
 467  565.8069
 468  523.8125
 469  794.1832
 470  910.9719
 471  926.9703
 472  897.4991
 473  743.7386
 474  642.805
 475  1174.709
 476  1015.529
 477  787.9536
 478  791.4247
 479  836.681
 480  634.2009
 481  413.1283
 482  903.9346
 483  973.5703
 484  1147.898
 485  852.2822
 486  680.7363
 487  797.241
 488  885.3154
 489  615.448
 490  809.0191
 491  984.936
 492  1209.648
 493  863.9456
 494  700.6501
 495  422.0156
 496  647.4787
 497  927.0089
 498  1095.851
 499  1135.457
 500  912.1132
 501  806.4696
 502  864.3807
 503  1016.428
 504  566.2211
 505  865.2137
 506  966.2661
 507  845.1924
 508  814.5605
 509  942.4587
 510  844.6821
 511  857.5445
