# Input file       =  1201634619.11026_cleaned.dat
# Candidate        =  PSR_0332+5434
# Telescope        =  AR
# Epoch_topo       =  58151.808311461340
# Epoch_bary       =  N/A
# T_sample         =  0.002
# Data Folded      =  7340032
# Data Avg         =  0.0513666719894641
# Data StdDev      =  3.05650338015413 
# Profile Bins     =  512
# Profile Avg      =  736.311629791019 
# Profile StdDev   =  365.964430401703 
# Reduced chi-sqr  =  0.864
# Prob(Noise)      <  0.988   (~0.0 sigma)
# P_topo (ms)      =  714.576958726994  +/- 0.000857
# P'_topo (s/s)    =  -0                +/- 4.52e-10
# P''_topo (s/s^2) =  0                 +/- 2e-13
# P_bary (ms)      =  N/A
# P'_bary (s/s)    =  N/A
# P''_bary (s/s^2) =  N/A
# P_orb (s)        =  N/A
# asin(i)/c (s)    =  N/A
# eccentricity     =  N/A
# w (rad)          =  N/A
# T_peri           =  N/A
######################################################
   0  606.2123
   1  738.7852
   2  887.0124
   3  681.1841
   4  481.6918
   5  774.6273
   6  591.4797
   7  508.389
   8  674.1388
   9  563.5832
  10  622.7352
  11  421.7903
  12  602.6193
  13  929.7617
  14  696.2478
  15  728.8569
  16  867.9756
  17  1036.111
  18  536.89
  19  504.4035
  20  782.5719
  21  640.5218
  22  342.1277
  23  739.4219
  24  1178.202
  25  946.4342
  26  411.0893
  27  567.3402
  28  581.0776
  29  614.486
  30  898.3922
  31  957.9976
  32  762.3702
  33  995.8873
  34  731.014
  35  882.5535
  36  923.2243
  37  799.5645
  38  772.0158
  39  1032.615
  40  895.1867
  41  544.3251
  42  443.6805
  43  827.9016
  44  805.4573
  45  716.887
  46  699.9665
  47  721.2171
  48  685.4935
  49  845.7546
  50  981.8289
  51  666.6899
  52  758.3611
  53  678.9277
  54  774.2383
  55  747.2016
  56  726.5691
  57  541.228
  58  633.6042
  59  845.8943
  60  984.1888
  61  647.1518
  62  235.5962
  63  299.2453
  64  784.0894
  65  860.9945
  66  689.111
  67  704.4111
  68  614.7849
  69  840.1281
  70  845.0457
  71  651.1039
  72  790.9877
  73  1134.501
  74  1020.367
  75  890.6201
  76  935.6463
  77  1016.107
  78  707.2424
  79  570.6074
  80  715.2047
  81  941.8611
  82  1132.583
  83  1010.698
  84  823.2626
  85  1086.005
  86  853.4117
  87  735.0605
  88  787.7726
  89  956.2524
  90  591.6733
  91  611.5915
  92  718.0834
  93  905.2598
  94  472.3859
  95  871.8451
  96  1054.557
  97  599.8395
  98  613.7336
  99  555.4538
 100  614.0229
 101  895.6906
 102  469.0103
 103  399.1468
 104  391.2819
 105  1080.86
 106  983.0518
 107  863.3508
 108  691.107
 109  1177.083
 110  1010.303
 111  890.8359
 112  707.0943
 113  771.113
 114  934.2954
 115  1035.918
 116  754.3292
 117  779.1055
 118  633.7424
 119  610.8078
 120  709.539
 121  660.4057
 122  964.7346
 123  847.7208
 124  734.3319
 125  814.9935
 126  541.5411
 127  514.1066
 128  527.3283
 129  525.465
 130  635.8885
 131  545.986
 132  656.8779
 133  798.8558
 134  500.3418
 135  681.5654
 136  710.333
 137  588.8992
 138  533.6061
 139  735.7062
 140  868.2869
 141  511.9354
 142  621.6171
 143  703.3659
 144  598.7228
 145  527.8671
 146  998.4889
 147  937.3102
 148  569.8395
 149  576.9862
 150  856.6935
 151  902.4811
 152  943.5596
 153  680.9846
 154  552.8534
 155  623.31
 156  646.1208
 157  433.4735
 158  596.5439
 159  911.9959
 160  756.3627
 161  677.3947
 162  583.426
 163  341.8074
 164  215.3664
 165  502.3435
 166  628.939
 167  717.1808
 168  603.6243
 169  455.4428
 170  318.5604
 171  339.5101
 172  618.4445
 173  583.0631
 174  817.5533
 175  835.5308
 176  416.7354
 177  387.1399
 178  557.4299
 179  611.0244
 180  578.7297
 181  699.9647
 182  655.5278
 183  556.5096
 184  606.5043
 185  600.748
 186  597.7652
 187  694.1083
 188  811.165
 189  1091.345
 190  526.3174
 191  414.7845
 192  338.6044
 193  473.5767
 194  455.0275
 195  409.318
 196  378.8447
 197  581.4154
 198  535.2273
 199  711.5793
 200  592.719
 201  593.9243
 202  619.1605
 203  530.6565
 204  210.4951
 205  290.5054
 206  499.3271
 207  578.7994
 208  509.0653
 209  554.3451
 210  607.9861
 211  676.4293
 212  625.6957
 213  967.2368
 214  975.2253
 215  582.7053
 216  403.3672
 217  340.5908
 218  552.1893
 219  910.7684
 220  1114.265
 221  966.2601
 222  708.1848
 223  554.5914
 224  303.0051
 225  642.1254
 226  804.2106
 227  725.7458
 228  814.9346
 229  593.8669
 230  823.8443
 231  648.0121
 232  502.5891
 233  645.2957
 234  798.4656
 235  896.1427
 236  809.1501
 237  592.9899
 238  586.0602
 239  543.2125
 240  849.2101
 241  792.7324
 242  763.4505
 243  656.4938
 244  819.165
 245  1049.906
 246  603.4722
 247  525.0035
 248  823.7029
 249  622.0968
 250  522.0782
 251  606.4796
 252  459.8921
 253  457.1313
 254  771.5417
 255  726.2816
 256  659.3721
 257  346.5339
 258  168.0651
 259  354.8051
 260  293.2464
 261  682.0427
 262  327.6404
 263  479.7
 264  734.3917
 265  762.4038
 266  667.7605
 267  670.5623
 268  675.1124
 269  867.8006
 270  903.9016
 271  862.8336
 272  657.7805
 273  834.5905
 274  894.4125
 275  1025.17
 276  780.9039
 277  703.7872
 278  910.5064
 279  554.301
 280  973.8939
 281  826.4171
 282  741.2115
 283  1055.666
 284  1072.484
 285  1162.81
 286  1226.291
 287  1223.493
 288  1208.503
 289  871.2026
 290  871.1715
 291  860.9141
 292  916.8336
 293  896.2534
 294  932.8369
 295  1186.306
 296  1087.644
 297  809.4814
 298  906.375
 299  910.0062
 300  1032.271
 301  663.0992
 302  857.0133
 303  1302.781
 304  1452.288
 305  1685.345
 306  2019.899
 307  2496.331
 308  2140.298
 309  1688.781
 310  1277.883
 311  882.8115
 312  547.1562
 313  560.1538
 314  743.1832
 315  776.9754
 316  772.1921
 317  993.616
 318  968.2126
 319  777.9989
 320  843.2137
 321  907.6436
 322  678.9569
 323  866.3466
 324  897.278
 325  952.5945
 326  630.7788
 327  625.7641
 328  534.2682
 329  450.3035
 330  561.5336
 331  754.4679
 332  551.7317
 333  396.0027
 334  724.6284
 335  679.9133
 336  541.043
 337  896.1425
 338  1124.188
 339  1137.945
 340  692.7278
 341  521.4995
 342  314.616
 343  460.3122
 344  680.3682
 345  835.8645
 346  711.5394
 347  617.54
 348  490.4843
 349  180.9746
 350  446.6498
 351  809.1985
 352  756.4431
 353  846.3967
 354  1085.551
 355  784.9348
 356  596.736
 357  428.5174
 358  301.8782
 359  456.4398
 360  564.4872
 361  733.4645
 362  326.5312
 363  438.5424
 364  855.3593
 365  959.5293
 366  567.2152
 367  999.1984
 368  851.3264
 369  596.5659
 370  658.2867
 371  814.872
 372  945.3621
 373  671.5475
 374  577.1103
 375  554.2402
 376  638.7449
 377  907.3958
 378  763.3675
 379  973.5854
 380  869.255
 381  762.9317
 382  792.9133
 383  739.655
 384  732.9738
 385  612.559
 386  1149.417
 387  849.8047
 388  669.1825
 389  496.0688
 390  342.4426
 391  626.5419
 392  468.5679
 393  617.6669
 394  605.7011
 395  788.8282
 396  709.423
 397  551.5547
 398  550.4553
 399  857.2894
 400  902.7382
 401  1125.771
 402  719.7405
 403  759.4545
 404  705.1597
 405  811.8505
 406  673.6923
 407  699.6225
 408  978.1747
 409  660.3484
 410  753.3467
 411  830.934
 412  779.3743
 413  385.3676
 414  209.2379
 415  475.966
 416  1173.6
 417  1263.106
 418  1290.709
 419  1064.301
 420  527.3739
 421  366.5359
 422  621.0428
 423  643.6463
 424  830.3373
 425  781.4551
 426  597.074
 427  527.9015
 428  858.8502
 429  986.6
 430  812.8082
 431  717.8123
 432  565.6957
 433  717.4518
 434  650.155
 435  745.7761
 436  779.7507
 437  925.0629
 438  991.2902
 439  736.3474
 440  585.448
 441  1031.804
 442  1089.03
 443  634.2902
 444  795.7528
 445  1101.114
 446  1002.953
 447  562.4819
 448  349.5741
 449  828.3665
 450  942.5142
 451  1130.589
 452  1183.086
 453  937.994
 454  728.4114
 455  673.4886
 456  427.3051
 457  534.3287
 458  727.364
 459  862.3145
 460  917.2545
 461  869.2562
 462  804.4036
 463  654.8862
 464  818.9843
 465  919.95
 466  731.1011
 467  859.006
 468  719.6749
 469  633.4046
 470  500.9518
 471  487.5383
 472  653.975
 473  789.678
 474  966.8988
 475  780.7836
 476  759.778
 477  507.0318
 478  645.5104
 479  884.4539
 480  536.5793
 481  298.5591
 482  592.7764
 483  532.8329
 484  569.2258
 485  715.4971
 486  971.5627
 487  997.5591
 488  1050.025
 489  914.1094
 490  819.3721
 491  808.9349
 492  800.5047
 493  809.5434
 494  628.0248
 495  873.6558
 496  751.2756
 497  705.5364
 498  927.311
 499  719.5145
 500  745.5878
 501  431.9792
 502  538.5232
 503  728.9438
 504  729.0885
 505  957.2941
 506  994.6678
 507  812.5
 508  711.59
 509  516.3758
 510  860.7825
 511  882.7234
