# Input file       =  1202380413.111722_cleaned.dat
# Candidate        =  PSR_0332+5434
# Telescope        =  AR
# Epoch_topo       =  58160.440186478263
# Epoch_bary       =  N/A
# T_sample         =  0.002
# Data Folded      =  7143424
# Data Avg         =  0.119926343772373
# Data StdDev      =  4.07121598061356 
# Profile Bins     =  512
# Profile Avg      =  1673.340748281   
# Profile StdDev   =  480.886268750031 
# Reduced chi-sqr  =  1.278
# Prob(Noise)      <  2.01e-05   (~4.1 sigma)
# P_topo (ms)      =  714.579278769285  +/- 3.59e-05
# P'_topo (s/s)    =  -0                +/- 1.95e-11
# P''_topo (s/s^2) =  0                 +/- 8.83e-15
# P_bary (ms)      =  N/A
# P'_bary (s/s)    =  N/A
# P''_bary (s/s^2) =  N/A
# P_orb (s)        =  N/A
# asin(i)/c (s)    =  N/A
# eccentricity     =  N/A
# w (rad)          =  N/A
# T_peri           =  N/A
######################################################
   0  2091.71
   1  1631.815
   2  1136.294
   3  1027.31
   4  1345.563
   5  1435.264
   6  1888.07
   7  2363.117
   8  2264.378
   9  2063.075
  10  1383.727
  11  1130.341
  12  1429.056
  13  1628.714
  14  1715.847
  15  1982.593
  16  1937.176
  17  1675.374
  18  1134.288
  19  833.1227
  20  979.9425
  21  1270.467
  22  1693.977
  23  1802.182
  24  2379.242
  25  2130.371
  26  1896.845
  27  1890.745
  28  1553.228
  29  1669.145
  30  1732.142
  31  1594.023
  32  1919.673
  33  1805.587
  34  1394.211
  35  1143.349
  36  1433.097
  37  1518.984
  38  1472.592
  39  1436.334
  40  1974.624
  41  1978.815
  42  1535.232
  43  1653.058
  44  1731.234
  45  1661.754
  46  1590.621
  47  1706.061
  48  1519.221
  49  1458.813
  50  1756.095
  51  1762.562
  52  1680.156
  53  1659.697
  54  1649.837
  55  1661.438
  56  1935.216
  57  2477.266
  58  2286.716
  59  1759.81
  60  1434.011
  61  1495.13
  62  1424.887
  63  1114.836
  64  1293.894
  65  1795.783
  66  1784.142
  67  1426.38
  68  1456.726
  69  1443.116
  70  1268.157
  71  1020.939
  72  1692.251
  73  2359.825
  74  2306.445
  75  2091.166
  76  1774.13
  77  1529.776
  78  1525.717
  79  1582.661
  80  1919.667
  81  2032.772
  82  2277.527
  83  2047.553
  84  1570.928
  85  1220.232
  86  1329.771
  87  1277.648
  88  1289.767
  89  1808.768
  90  2260.02
  91  2007.35
  92  1948.389
  93  1687.018
  94  1262.119
  95  1226.324
  96  1379.575
  97  1397.056
  98  1920.577
  99  1902.196
 100  1650.049
 101  1224.383
 102  1395.176
 103  1384.717
 104  1176.228
 105  1655.51
 106  2037.984
 107  2056.013
 108  1466.552
 109  1643.621
 110  1791.569
 111  1700.024
 112  1586.528
 113  1633.986
 114  1795.397
 115  1461.403
 116  1433.771
 117  1279.998
 118  1815.605
 119  1495.265
 120  1376.927
 121  1693.976
 122  1694.722
 123  2484.713
 124  2159.99
 125  2094.753
 126  2038.578
 127  1857.373
 128  1759.058
 129  1487.61
 130  1695.669
 131  2091.414
 132  1914.928
 133  1651.743
 134  1472.717
 135  1535.042
 136  1529.043
 137  1753.723
 138  1540.54
 139  2084.84
 140  2007.696
 141  2102.552
 142  2311.494
 143  1940.168
 144  1856.541
 145  1551.568
 146  1555.653
 147  1560.875
 148  1725.627
 149  1548.398
 150  1002.712
 151  1305.57
 152  1604.629
 153  1305.281
 154  1587.127
 155  2154.298
 156  2272.041
 157  1883.499
 158  1611.104
 159  1720.817
 160  1793.786
 161  1568.389
 162  1671.432
 163  1882.521
 164  1792.135
 165  1890.445
 166  1509.283
 167  1197.669
 168  840.1634
 169  1084.482
 170  1032.135
 171  1599.359
 172  2022.545
 173  2318.68
 174  2029.209
 175  1634.516
 176  1685.6
 177  1733.948
 178  1356.946
 179  1226.943
 180  1628.249
 181  2208.881
 182  1800.024
 183  1179.504
 184  1098.86
 185  1116.709
 186  1073.399
 187  1583.848
 188  2041.577
 189  2205.481
 190  2032.524
 191  1610.748
 192  1423.996
 193  1740.236
 194  1667.613
 195  1475.771
 196  1231.276
 197  1225.553
 198  1422.452
 199  1099.831
 200  1147.602
 201  1444.375
 202  1291.109
 203  1412.684
 204  1516.354
 205  2097.862
 206  2379.091
 207  1836.939
 208  1704.675
 209  1634.089
 210  1765.192
 211  1356.942
 212  1437.85
 213  1966.185
 214  2203.841
 215  1695.801
 216  1219.116
 217  1218.396
 218  1286.14
 219  1552.154
 220  2023.368
 221  2151.352
 222  2285.377
 223  1767.072
 224  1747.098
 225  1674.828
 226  1851.99
 227  1868.53
 228  1704.919
 229  1569.154
 230  1704.108
 231  1679.722
 232  1278.496
 233  1171.596
 234  1200.072
 235  1322.082
 236  1635.48
 237  1834.611
 238  2325.919
 239  2368.719
 240  2256.426
 241  1760.44
 242  1468.687
 243  1636.03
 244  1371.006
 245  1519.048
 246  2041.666
 247  2357.925
 248  1961.292
 249  1171.807
 250  1280.545
 251  1527.134
 252  1586.417
 253  1838.266
 254  2285.808
 255  2184.32
 256  2287.869
 257  1542.198
 258  1441.362
 259  1398.477
 260  1400.401
 261  1538.271
 262  1464.919
 263  2035.187
 264  1816.885
 265  1469.969
 266  1501.928
 267  1465.308
 268  1258.581
 269  1133.411
 270  1746.904
 271  2152.316
 272  2393.255
 273  2377.938
 274  1890.609
 275  1914.888
 276  1443.817
 277  1180.231
 278  1670.373
 279  2038.33
 280  1979.664
 281  1474.683
 282  1326.411
 283  1349.899
 284  1520.943
 285  1534.07
 286  1939.322
 287  2193.738
 288  2628.309
 289  2464.494
 290  1912.281
 291  1633.008
 292  1855.223
 293  1772.184
 294  1282.637
 295  1392.484
 296  1797.142
 297  1887.186
 298  1694.354
 299  1443.211
 300  1324.008
 301  1327.26
 302  2074.96
 303  2446.75
 304  3386.499
 305  3541.167
 306  3166.07
 307  2974.666
 308  2771.023
 309  2717.025
 310  2244.217
 311  1926.41
 312  2154.667
 313  2235.965
 314  1705.372
 315  1307.798
 316  1171.182
 317  1357.338
 318  1581.923
 319  2043.686
 320  2202.104
 321  2507.565
 322  2249.623
 323  1927.814
 324  1510.432
 325  1808.576
 326  1551.882
 327  1603.799
 328  1687.373
 329  1745.902
 330  1877.748
 331  1500.43
 332  1151.993
 333  982.5712
 334  967.7661
 335  1323.609
 336  1866.441
 337  2536.307
 338  2520.174
 339  2161.588
 340  1665.978
 341  1584.38
 342  1592.724
 343  1566.45
 344  1783.458
 345  1881.9
 346  2027.343
 347  1884.671
 348  1644.702
 349  1166.83
 350  1100.779
 351  1140.006
 352  1353.913
 353  1688.57
 354  2201.266
 355  2059.652
 356  1867.245
 357  2020.376
 358  1727.091
 359  1766.266
 360  1407.479
 361  1310.289
 362  1393.295
 363  1425.932
 364  1220.427
 365  1035.93
 366  911.7673
 367  972.5317
 368  1265.531
 369  1807.938
 370  2148.201
 371  2310.4
 372  1869.745
 373  1702.336
 374  1472.273
 375  1574.362
 376  1727.58
 377  1797.401
 378  1926.459
 379  1713.7
 380  1875.404
 381  1545.178
 382  1241.289
 383  1477.166
 384  1521.148
 385  1723.802
 386  2029.773
 387  2293.317
 388  2321.038
 389  2042.334
 390  1532.506
 391  1741.54
 392  1552.385
 393  1219.143
 394  1238.426
 395  1655.627
 396  1931.426
 397  1073.967
 398  848.4891
 399  1196.367
 400  1061.606
 401  1496.281
 402  1773.523
 403  2464.996
 404  2146.641
 405  1478.441
 406  1205.583
 407  1542.506
 408  1540.492
 409  1223.297
 410  1454.16
 411  1530.507
 412  1492.636
 413  1074.692
 414  1136.886
 415  1472.792
 416  1391.349
 417  1246.23
 418  1165.832
 419  1515.084
 420  1940.432
 421  1900.611
 422  1609.216
 423  1448.44
 424  1996.178
 425  1854.276
 426  1446.712
 427  1320.978
 428  1798.542
 429  1964.08
 430  1553.272
 431  1095.524
 432  961.0725
 433  1226.2
 434  1336.502
 435  1485.373
 436  2048.091
 437  2230.062
 438  2016.098
 439  1852.145
 440  1593.4
 441  1648.158
 442  1490.597
 443  1834.058
 444  1881.958
 445  1901.104
 446  1555.828
 447  1781.517
 448  1257.553
 449  1326.626
 450  1347.685
 451  1180.862
 452  1952.341
 453  2399.205
 454  2531.757
 455  2204.369
 456  1546.165
 457  1402.48
 458  1156.167
 459  1226.359
 460  1592.656
 461  1994.41
 462  2071.271
 463  1677.964
 464  1200.084
 465  1287.178
 466  1060.14
 467  1160.983
 468  1739.633
 469  2170.749
 470  2561.519
 471  1595.649
 472  1485.964
 473  1652.873
 474  1897.068
 475  1652.158
 476  1505.314
 477  1563.107
 478  1409.989
 479  1362.513
 480  1215.34
 481  1319.478
 482  1522.37
 483  1526.116
 484  1288.963
 485  1353.408
 486  2109.766
 487  2051.692
 488  1976.978
 489  1587.168
 490  1466.665
 491  896.6665
 492  1247.83
 493  1686.249
 494  1864.392
 495  1735.377
 496  1598.125
 497  1186.999
 498  782.1332
 499  1085.61
 500  1290.723
 501  1248.347
 502  1920.867
 503  2098.882
 504  1984.408
 505  1442.665
 506  1969.667
 507  1710.195
 508  1394.913
 509  1583.152
 510  2002.666
 511  2322.406
