# Input file       =  1202380413.111722_cleaned.dat
# Candidate        =  PSR_0332+5434
# Telescope        =  AR
# Epoch_topo       =  58160.440186478263
# Epoch_bary       =  N/A
# T_sample         =  0.002
# Data Folded      =  7143424
# Data Avg         =  0.119926343772373
# Data StdDev      =  4.07121598061356 
# Profile Bins     =  512
# Profile Avg      =  1673.34074821449 
# Profile StdDev   =  480.886268750031 
# Reduced chi-sqr  =  1.269
# Prob(Noise)      <  3.32e-05   (~4.0 sigma)
# P_topo (ms)      =  714.579278765596  +/- 3.6e-05
# P'_topo (s/s)    =  -0                +/- 1.95e-11
# P''_topo (s/s^2) =  0                 +/- 8.85e-15
# P_bary (ms)      =  N/A
# P'_bary (s/s)    =  N/A
# P''_bary (s/s^2) =  N/A
# P_orb (s)        =  N/A
# asin(i)/c (s)    =  N/A
# eccentricity     =  N/A
# w (rad)          =  N/A
# T_peri           =  N/A
######################################################
   0  1950.011
   1  1620.543
   2  1665.433
   3  1685.416
   4  1557.987
   5  1667.85
   6  1694.783
   7  1871.428
   8  1630.605
   9  1227.86
  10  1026.631
  11  968.9741
  12  1134.416
  13  1741.604
  14  2368.239
  15  2621.687
  16  2279.689
  17  1772.638
  18  1524.397
  19  1649.006
  20  1541.919
  21  1724.961
  22  1861.229
  23  1964.596
  24  1966.169
  25  1740.676
  26  1278.941
  27  1139.056
  28  1043.584
  29  1335.1
  30  1508.024
  31  2161.753
  32  2130.95
  33  1850.67
  34  2012.227
  35  1798.59
  36  1808.966
  37  1486.702
  38  1319.227
  39  1356.588
  40  1405.52
  41  1349.08
  42  1030.488
  43  992.8555
  44  879.7321
  45  1174.706
  46  1634.135
  47  2090.694
  48  2335.974
  49  1967.272
  50  1763.263
  51  1502.673
  52  1542.478
  53  1657.658
  54  1790.809
  55  1910.693
  56  1764.376
  57  1841.374
  58  1674.775
  59  1290.309
  60  1363.449
  61  1554.043
  62  1638.932
  63  1958.56
  64  2268.123
  65  2281.77
  66  2193.368
  67  1557.36
  68  1725.4
  69  1606.608
  70  1330.116
  71  1188.759
  72  1496.009
  73  1999.171
  74  1290.08
  75  870.257
  76  1085.448
  77  1112.154
  78  1282.138
  79  1736.827
  80  2281.077
  81  2343.53
  82  1681.846
  83  1113.204
  84  1570.979
  85  1470.853
  86  1391.457
  87  1286.928
  88  1566.373
  89  1548.727
  90  1164.278
  91  1108.496
  92  1304.343
  93  1490.466
  94  1270.544
  95  1145.431
  96  1421.102
  97  1788.604
  98  2035.966
  99  1624.788
 100  1512.776
 101  1799.753
 102  1987.027
 103  1542.732
 104  1255.097
 105  1700.238
 106  1942.421
 107  1709.47
 108  1170.801
 109  985.0608
 110  1145.314
 111  1342.817
 112  1403.11
 113  1872.416
 114  2273.947
 115  2028.31
 116  1942.649
 117  1594.301
 118  1695.739
 119  1479.532
 120  1724.847
 121  1905.002
 122  1919.058
 123  1609.969
 124  1759.088
 125  1400.988
 126  1273.656
 127  1385.843
 128  1224.881
 129  1588.102
 130  2399.069
 131  2417.999
 132  2444.578
 133  1666.017
 134  1426.598
 135  1247.385
 136  1091.584
 137  1606.617
 138  1802.386
 139  2171.78
 140  1774.095
 141  1265.39
 142  1297.1
 143  1098.068
 144  1102.152
 145  1526.653
 146  2092.279
 147  2544.427
 148  1918.266
 149  1401.713
 150  1588.594
 151  1892.357
 152  1681.127
 153  1606.526
 154  1457.532
 155  1563.839
 156  1301.401
 157  1256.38
 158  1269.064
 159  1457.691
 160  1623.827
 161  1288.705
 162  1309.17
 163  1878.139
 164  2159.753
 165  1982.862
 166  1661.759
 167  1550.536
 168  986.6042
 169  1133.396
 170  1532.151
 171  1908.784
 172  1760.662
 173  1616.372
 174  1387.449
 175  814.1906
 176  1048.514
 177  1174.957
 178  1283.714
 179  1663.915
 180  2130.277
 181  2088.136
 182  1449.286
 183  1879.399
 184  1801.484
 185  1538.085
 186  1411.318
 187  1925.811
 188  2202.26
 189  2232.44
 190  1788.238
 191  1259.917
 192  985.6547
 193  1230.608
 194  1447.104
 195  1673.192
 196  2332.436
 197  2302.158
 198  2154.821
 199  1589.206
 200  1104.504
 201  1348.349
 202  1587.292
 203  1692.851
 204  1922.398
 205  1968.572
 206  1780.385
 207  1258.976
 208  898.6914
 209  882.0674
 210  1219.794
 211  1600.712
 212  1711.534
 213  2260.986
 214  2218.325
 215  1991.067
 216  1827.515
 217  1732.249
 218  1521.633
 219  1813.23
 220  1557.5
 221  1785.245
 222  1961.472
 223  1461.062
 224  1242.513
 225  1308.94
 226  1541.436
 227  1493.645
 228  1349.658
 229  1873.171
 230  1992.46
 231  1692.293
 232  1503.998
 233  1785.29
 234  1691.03
 235  1576.362
 236  1733.694
 237  1531.969
 238  1489.348
 239  1653.977
 240  1840.081
 241  1677.669
 242  1591.145
 243  1694.821
 244  1611.328
 245  1877.509
 246  2302.665
 247  2453.912
 248  1828.879
 249  1562.803
 250  1447.644
 251  1513.908
 252  1176.385
 253  1146.972
 254  1695.525
 255  1809.374
 256  1562.886
 257  1382.332
 258  1460.759
 259  1352.265
 260  1008.058
 261  1497.317
 262  2195.101
 263  2416.675
 264  2109.593
 265  1916.506
 266  1541.723
 267  1482.998
 268  1555.325
 269  1803.343
 270  2078.122
 271  2164.599
 272  2184.99
 273  1711.544
 274  1262.59
 275  1340.133
 276  1253.399
 277  1289.284
 278  1601.476
 279  2216.173
 280  2077.694
 281  1893.913
 282  1890.879
 283  1298.642
 284  1273.65
 285  1261.677
 286  1422.178
 287  1738.734
 288  2005.661
 289  1724.834
 290  1295.676
 291  1291.978
 292  1430.961
 293  1250.775
 294  1423.607
 295  1988.934
 296  2088.849
 297  1657.563
 298  1529.672
 299  1765.525
 300  1782.935
 301  1545.091
 302  1644.616
 303  1733.143
 304  1589.622
 305  1477.021
 306  1195.799
 307  1741.328
 308  1629.734
 309  1406.039
 310  1551.506
 311  1670.082
 312  2232.446
 313  2395.821
 314  2039.62
 315  2085.477
 316  1879.047
 317  1767.557
 318  1601.515
 319  1531.069
 320  2068.015
 321  1977.197
 322  1693.543
 323  1578.547
 324  1472.54
 325  1555.929
 326  1660.308
 327  1575.253
 328  1926.775
 329  2076.633
 330  2041.343
 331  2263.694
 332  2080.65
 333  1845.788
 334  1705.782
 335  1526.796
 336  1558.136
 337  1674.867
 338  1606.743
 339  1182.32
 340  1083.37
 341  1641.579
 342  1341.905
 343  1431.883
 344  2069.823
 345  2254.052
 346  2063.548
 347  1583.904
 348  1690.663
 349  1836.408
 350  1594.322
 351  1644.313
 352  1796.773
 353  1876.641
 354  1814.043
 355  1715.795
 356  1227.505
 357  927.356
 358  1000.776
 359  1016.441
 360  1467.952
 361  1825.484
 362  2384.326
 363  2061.466
 364  1816.947
 365  1550.127
 366  1789.958
 367  1459.354
 368  1190.461
 369  1487.495
 370  2057.264
 371  2050.087
 372  1292.44
 373  1129.854
 374  1144.288
 375  974.1562
 376  1398.339
 377  1922.675
 378  2273.534
 379  2071.879
 380  1792.733
 381  1318.231
 382  1711.109
 383  1760.325
 384  1473.037
 385  1346.924
 386  1082.276
 387  1520.844
 388  1145.518
 389  1098.65
 390  1414.284
 391  1282.604
 392  1398.847
 393  1425.609
 394  1958.329
 395  2354.577
 396  2028.463
 397  1650.092
 398  1676.914
 399  1798.77
 400  1483.692
 401  1329.341
 402  1766.623
 403  2235.183
 404  1888.207
 405  1288.427
 406  1199.504
 407  1233.966
 408  1505.744
 409  1856.317
 410  2207.715
 411  2220.745
 412  1962.368
 413  1727.982
 414  1653.119
 415  1823.511
 416  1793.312
 417  1828.382
 418  1517.431
 419  1704.833
 420  1739.264
 421  1359.189
 422  1236.141
 423  1151.003
 424  1328.154
 425  1502.513
 426  1754.636
 427  2214.216
 428  2354.166
 429  2339.473
 430  1904.142
 431  1481.208
 432  1613.742
 433  1490.13
 434  1376.216
 435  1905.87
 436  2270.549
 437  2215.802
 438  1339.789
 439  1203.19
 440  1464.184
 441  1528.44
 442  1740.502
 443  2225.767
 444  2193.828
 445  2314.895
 446  1715.403
 447  1478.752
 448  1404.941
 449  1390.438
 450  1490.193
 451  1446.116
 452  1899.569
 453  1935.731
 454  1585.188
 455  1365.139
 456  1589.09
 457  1287.896
 458  1148.434
 459  1523.892
 460  2059.255
 461  2376.653
 462  2392.199
 463  2077.557
 464  1838.309
 465  1661.728
 466  1122.019
 467  1506.678
 468  1964.997
 469  2055.551
 470  1650.682
 471  1301.1
 472  1381.285
 473  1501.234
 474  1458.431
 475  1871.389
 476  2009.052
 477  2628.71
 478  2461.706
 479  2173.404
 480  1573.217
 481  1845.072
 482  1824.369
 483  1407.752
 484  1348.531
 485  1633.035
 486  1957.962
 487  1689.35
 488  1561.403
 489  1360.51
 490  1218.577
 491  1913.302
 492  2252.767
 493  3210.202
 494  3493.66
 495  3356.038
 496  2918.613
 497  2909.223
 498  2712.897
 499  2411.703
 500  1971.26
 501  2001.378
 502  2360.356
 503  1790.917
 504  1465.027
 505  1137.845
 506  1289.184
 507  1566.002
 508  1820.075
 509  2271.91
 510  2300.153
 511  2522.525
