# Input file       =  1202035820.10998_cleaned.dat
# Candidate        =  PSR_0332+5434
# Telescope        =  AR
# Epoch_topo       =  58156.451841550697
# Epoch_bary       =  N/A
# T_sample         =  0.002
# Data Folded      =  7405568
# Data Avg         =  0.0913689888671733
# Data StdDev      =  5.02821710885036 
# Profile Bins     =  512
# Profile Avg      =  1321.55561166284 
# Profile StdDev   =  604.725424417222 
# Reduced chi-sqr  =  0.784
# Prob(Noise)      <  1   (~0.0 sigma)
# P_topo (ms)      =  714.578201544927  +/- 5e-05
# P'_topo (s/s)    =  -0                +/- 2.62e-11
# P''_topo (s/s^2) =  0                 +/- 1.14e-14
# P_bary (ms)      =  N/A
# P'_bary (s/s)    =  N/A
# P''_bary (s/s^2) =  N/A
# P_orb (s)        =  N/A
# asin(i)/c (s)    =  N/A
# eccentricity     =  N/A
# w (rad)          =  N/A
# T_peri           =  N/A
######################################################
   0  1112.226
   1  1077.644
   2  1082.276
   3  1911.706
   4  1971.769
   5  1071.487
   6  695.5518
   7  938.2401
   8  689.6038
   9  740.8444
  10  1062.828
  11  1306.493
  12  1103.408
  13  1507.647
  14  1818.062
  15  1530.193
  16  1049.493
  17  994.4687
  18  766.8666
  19  1110.639
  20  1486.394
  21  1664.628
  22  1141.954
  23  1460.817
  24  1464.237
  25  1281.164
  26  1611.521
  27  1669.241
  28  1629.864
  29  1803.866
  30  1579.654
  31  1129.257
  32  975.4473
  33  1293.84
  34  1495.799
  35  1262.245
  36  1725.077
  37  2081.728
  38  1549.362
  39  1231.215
  40  945.442
  41  973.054
  42  1173.446
  43  1271.181
  44  1572.058
  45  1601.279
  46  1663.819
  47  1778.891
  48  1716.286
  49  1712.14
  50  1705.803
  51  1391.619
  52  1153.181
  53  1996.5
  54  2633.756
  55  2658.134
  56  2933.739
  57  3096.35
  58  2953.045
  59  2647.149
  60  2369.043
  61  2188.653
  62  1835.689
  63  1280.91
  64  1285.101
  65  1424.272
  66  1494.65
  67  1286.361
  68  1612.165
  69  2049.828
  70  1887.245
  71  1626.823
  72  1423.669
  73  1159.833
  74  1290.928
  75  1300.117
  76  1620.724
  77  1684.899
  78  1962.338
  79  1923.095
  80  1781.315
  81  925.3074
  82  1101.014
  83  761.2961
  84  524.4744
  85  1105.556
  86  1890.334
  87  1779.891
  88  1427.496
  89  844.3563
  90  1011.167
  91  926.9111
  92  929.4994
  93  975.929
  94  1424.722
  95  1821.78
  96  1553.411
  97  1253.658
  98  1374.346
  99  1316.406
 100  1023.107
 101  1006.353
 102  1366.589
 103  1504.626
 104  1253.763
 105  879.522
 106  1038.961
 107  843.5276
 108  467.3048
 109  633.9597
 110  1242.157
 111  1528.614
 112  1945.128
 113  1464.923
 114  1249.107
 115  660.365
 116  711.8091
 117  971.8613
 118  1244.225
 119  1686.553
 120  1588.739
 121  1092.329
 122  1131.995
 123  962.0291
 124  727.5845
 125  581.8453
 126  1203.068
 127  1764.075
 128  1563.408
 129  787.9676
 130  1110.927
 131  1473.535
 132  1492.643
 133  762.4402
 134  1030.892
 135  813.251
 136  1008.405
 137  695.1063
 138  1126.91
 139  1265.778
 140  1290.626
 141  1254.197
 142  1310.668
 143  1634.913
 144  1694.63
 145  1447.649
 146  1540.945
 147  1132.291
 148  888.2095
 149  985.2012
 150  1050.043
 151  1375.948
 152  1730.063
 153  1838.733
 154  1342.001
 155  878.7811
 156  960.5887
 157  865.759
 158  983.6345
 159  1384.444
 160  1931.684
 161  1765.433
 162  989.0663
 163  1250.062
 164  1379.787
 165  1096.367
 166  1321.189
 167  1328.904
 168  1241.526
 169  1315.759
 170  1263.648
 171  1205.298
 172  1359.009
 173  1325.635
 174  1370.575
 175  1518.092
 176  1687.503
 177  1772.231
 178  1347.152
 179  1412.481
 180  1136.697
 181  701.6156
 182  1025.21
 183  1302.534
 184  2001.214
 185  2319.228
 186  2091.402
 187  1405.837
 188  1066.667
 189  775.1138
 190  999.2988
 191  1384.981
 192  1509.71
 193  2009.828
 194  1617.788
 195  1768.917
 196  1793.046
 197  1222.066
 198  1419.935
 199  1270.613
 200  1357.207
 201  1256.773
 202  1471.192
 203  1813.488
 204  1334.933
 205  1647.025
 206  1469.68
 207  1427.634
 208  1653.433
 209  1686.507
 210  1850.151
 211  1748.782
 212  1419.798
 213  1324.026
 214  1609.758
 215  1545.43
 216  1304.837
 217  1739.055
 218  1921.17
 219  1524.281
 220  1071.834
 221  592.2531
 222  948.366
 223  1562.687
 224  1517.804
 225  1570.694
 226  1793.629
 227  1652.606
 228  1576.278
 229  1484.983
 230  1204.388
 231  900.6097
 232  587.5076
 233  851.5521
 234  1237.042
 235  1898.462
 236  1667.864
 237  1226.808
 238  878.9728
 239  1033.079
 240  462.5378
 241  751.8976
 242  1663.111
 243  1555.042
 244  1736.031
 245  1416.435
 246  927.7424
 247  1545.138
 248  1520.219
 249  1640.375
 250  1357.061
 251  1792.926
 252  1585.1
 253  948.6762
 254  822.6868
 255  1111.612
 256  1050.341
 257  850.0366
 258  1297.286
 259  1371.611
 260  1666.337
 261  1482.324
 262  1140.598
 263  1022.055
 264  873.4255
 265  867.612
 266  908.0639
 267  1533.652
 268  1730.351
 269  1622.456
 270  1098.597
 271  848.2373
 272  841.2614
 273  818.2505
 274  1368.025
 275  1328.518
 276  1842.043
 277  1737.132
 278  1149.415
 279  1443.552
 280  1597.633
 281  1633.187
 282  1382.084
 283  1508.694
 284  1255.184
 285  996.8351
 286  860.3487
 287  970.9013
 288  1192.159
 289  860.937
 290  885.8749
 291  1090.154
 292  1560.515
 293  1783.329
 294  1662.731
 295  1394.113
 296  1015.276
 297  807.4012
 298  750.769
 299  1200.043
 300  1671.091
 301  1757.98
 302  1530.362
 303  1291.625
 304  759.9506
 305  462.1658
 306  890.1957
 307  969.2838
 308  1144.498
 309  1654.211
 310  1820.052
 311  1221.195
 312  1125.385
 313  1157.769
 314  845.52
 315  778.3603
 316  972.7286
 317  1069.209
 318  1454.617
 319  1265.916
 320  1283.156
 321  1336.783
 322  1217.105
 323  1387.342
 324  1794.549
 325  1721.88
 326  1955.424
 327  1732.903
 328  1545.491
 329  1222.631
 330  1449.825
 331  1482.482
 332  1289.917
 333  1401.332
 334  1613.184
 335  1261.37
 336  858.5099
 337  1003.142
 338  1163.18
 339  1028.099
 340  1097.403
 341  1650.966
 342  1744.583
 343  1657.89
 344  1714.159
 345  1773.767
 346  1706.53
 347  1333.33
 348  1355.897
 349  997.2255
 350  1469.714
 351  1664.865
 352  1552.455
 353  1296.275
 354  1474.317
 355  1324.523
 356  1407.71
 357  1475.031
 358  1870.678
 359  1948.19
 360  1643.282
 361  1335.489
 362  1243.257
 363  1194.766
 364  1072.681
 365  1075.579
 366  1601.57
 367  1633.005
 368  1219.316
 369  792.7465
 370  799.7454
 371  707.5794
 372  966.7147
 373  838.573
 374  1046.106
 375  1242.669
 376  1343.969
 377  1330.746
 378  1650.572
 379  1335.572
 380  1177.726
 381  1444.536
 382  1107.262
 383  1543.384
 384  1741.608
 385  1248.136
 386  1347.188
 387  1405.863
 388  1272.73
 389  1162.211
 390  1579.658
 391  1331.94
 392  1415.442
 393  1570.93
 394  1036.042
 395  1017.065
 396  1260.318
 397  1206.543
 398  976.4276
 399  1376.217
 400  1457.583
 401  809.9219
 402  939.1211
 403  975.4904
 404  918.0507
 405  1079.338
 406  1239.997
 407  1299.591
 408  1664.698
 409  1521.327
 410  1348.378
 411  1139.235
 412  1071.097
 413  817.5618
 414  553.8587
 415  857.2798
 416  1305.038
 417  1981.646
 418  1741.102
 419  1074.962
 420  887.3973
 421  489.9941
 422  803.523
 423  1237.481
 424  1578.096
 425  1662.447
 426  1324.02
 427  1119.175
 428  1083.99
 429  1144.12
 430  1397.209
 431  1386.272
 432  1295.394
 433  1267.696
 434  1079.805
 435  513.5352
 436  993.6494
 437  1365.721
 438  990.3831
 439  1060.518
 440  1482.222
 441  1723.128
 442  1657.596
 443  1549.724
 444  1309.047
 445  763.8707
 446  1021.655
 447  717.9477
 448  1020.187
 449  2040.5
 450  1829.043
 451  1591.332
 452  1333.511
 453  1080.546
 454  1067.269
 455  887.674
 456  1104.81
 457  1453.121
 458  1520.07
 459  1494.463
 460  1037.262
 461  1264.529
 462  1370.672
 463  989.6675
 464  1105.944
 465  1252.126
 466  1367.389
 467  1390.077
 468  1239.887
 469  1065.559
 470  1098.526
 471  1008.219
 472  1249.203
 473  1523.985
 474  1995.754
 475  2248.989
 476  1728.229
 477  1309.721
 478  1072.258
 479  1292.355
 480  1231.88
 481  1399.913
 482  1529.099
 483  2143.784
 484  1347.897
 485  787.2252
 486  560.0846
 487  949.6986
 488  774.8913
 489  1172.466
 490  1369.55
 491  1582.618
 492  1446.421
 493  1497.443
 494  1273.109
 495  1353.279
 496  879.6699
 497  487.424
 498  811.2416
 499  1144.544
 500  797.0307
 501  877.1875
 502  1232.616
 503  948.0488
 504  830.6403
 505  972.9358
 506  1457.764
 507  1934.323
 508  1706.943
 509  1433.016
 510  959.0801
 511  822.6086
