# Input file       =  1203871285.120302_cleaned.dat
# Candidate        =  PSR_0332+5434
# Telescope        =  AR
# Epoch_topo       =  58177.695649540532
# Epoch_bary       =  N/A
# T_sample         =  0.002
# Data Folded      =  7340032
# Data Avg         =  0.504984141512458
# Data StdDev      =  11.2812878570315 
# Profile Bins     =  512
# Profile Avg      =  7239.55245088934 
# Profile StdDev   =  1350.74284936272 
# Reduced chi-sqr  =  0.526
# Prob(Noise)      <  1   (~0.0 sigma)
# P_topo (ms)      =  714.580777965392  +/- 0.00119
# P'_topo (s/s)    =  -0                +/- 6.28e-10
# P''_topo (s/s^2) =  0                 +/- 2.77e-13
# P_bary (ms)      =  N/A
# P'_bary (s/s)    =  N/A
# P''_bary (s/s^2) =  N/A
# P_orb (s)        =  N/A
# asin(i)/c (s)    =  N/A
# eccentricity     =  N/A
# w (rad)          =  N/A
# T_peri           =  N/A
######################################################
   0  7781.234
   1  7921.728
   2  7515.951
   3  7413.222
   4  7369.793
   5  7545.992
   6  7388.731
   7  7547.976
   8  7512.665
   9  7055.154
  10  6835.589
  11  6409.565
  12  5854.92
  13  6387.933
  14  6264.407
  15  6718.623
  16  6942.651
  17  7158.543
  18  6920.163
  19  7036.681
  20  6712.603
  21  6036.793
  22  5733.914
  23  6514.45
  24  7094.41
  25  7192.41
  26  6916.418
  27  6686.29
  28  6539.914
  29  6697.741
  30  6807.702
  31  6696.255
  32  6603.212
  33  6176.686
  34  6095.651
  35  6501.854
  36  6055.278
  37  5624.772
  38  6187.934
  39  6441.818
  40  7050.738
  41  7648.494
  42  7569.685
  43  8120.649
  44  8238.15
  45  8121.277
  46  8076.27
  47  7360.091
  48  7611.968
  49  7838.077
  50  7841.96
  51  7476.779
  52  7334.122
  53  7073.743
  54  7217.649
  55  6942.168
  56  6721.745
  57  6920.349
  58  6666.513
  59  6429.818
  60  6416.327
  61  6392.401
  62  6594.949
  63  6463.852
  64  6507.441
  65  7199.779
  66  6991.109
  67  6814.514
  68  7269.859
  69  7039.778
  70  7110.232
  71  7186.011
  72  7401.189
  73  7370.302
  74  7368.893
  75  7427.014
  76  7114.379
  77  6884.805
  78  6776.33
  79  6490.587
  80  6960.468
  81  7206.978
  82  7216.299
  83  7079.994
  84  6675.315
  85  6407.696
  86  7013.736
  87  6743.792
  88  6382.254
  89  5956.78
  90  5717.676
  91  5763.608
  92  6110.273
  93  5713.536
  94  4960.954
  95  5073.016
  96  5006.897
  97  5396.316
  98  5952.548
  99  5878.237
 100  5949.011
 101  6164.107
 102  6515.732
 103  6451.689
 104  6141.475
 105  6266.426
 106  6638.249
 107  6988.861
 108  6670.816
 109  6739.04
 110  7035.723
 111  6787.133
 112  6525.806
 113  6214.647
 114  6329.144
 115  6659.724
 116  6598.375
 117  6437.474
 118  5903.766
 119  6311.181
 120  6468.876
 121  6604.26
 122  7022.471
 123  7011.547
 124  7058.439
 125  6726.912
 126  6241.998
 127  6847.37
 128  7075.875
 129  6945.057
 130  6578.118
 131  6685.753
 132  7101.753
 133  6932.418
 134  6556.214
 135  7265.931
 136  7144.838
 137  6654.89
 138  6390.811
 139  6743.271
 140  6897.311
 141  7370.81
 142  6676.222
 143  6470.144
 144  6746.811
 145  6743.867
 146  6538.548
 147  6643.131
 148  7072.213
 149  7396.898
 150  7628.6
 151  7520.217
 152  7183.049
 153  7369.903
 154  7296.565
 155  7325.828
 156  7602.777
 157  7761.753
 158  7495.211
 159  7459.741
 160  7345.995
 161  8064.112
 162  8410.866
 163  7990.431
 164  8114.018
 165  8407.318
 166  7913.092
 167  7548.952
 168  7678.324
 169  7988.459
 170  7718.633
 171  7810.453
 172  7942.604
 173  7691.334
 174  7649.87
 175  7790.232
 176  7455.404
 177  7425.969
 178  7583.831
 179  7346.583
 180  7231.633
 181  7378.908
 182  7853.654
 183  7587.244
 184  6853.224
 185  6627.657
 186  6577.45
 187  6473.153
 188  6628.142
 189  6630.594
 190  6714.486
 191  7118.211
 192  6819.212
 193  6833.476
 194  6628.901
 195  6579.813
 196  7151.877
 197  7590.427
 198  8086.82
 199  7957.924
 200  8113.063
 201  7978.763
 202  7824.757
 203  7432.834
 204  7300.774
 205  7376.624
 206  7762.125
 207  8111.373
 208  7884.155
 209  7791.438
 210  7709.073
 211  7252.052
 212  7650.159
 213  7653.769
 214  7397.784
 215  7520.055
 216  7700.163
 217  7873.848
 218  7838.918
 219  7628.416
 220  7497.33
 221  7213.273
 222  6716.603
 223  7034.761
 224  7366.952
 225  7843.184
 226  8020.464
 227  8195.421
 228  7647.612
 229  7695.509
 230  8099.293
 231  7880.254
 232  8267.605
 233  8377.797
 234  7810.522
 235  7722.628
 236  8082.981
 237  8265.589
 238  8524.617
 239  8415.258
 240  8349.068
 241  7917.213
 242  7787.613
 243  7981.795
 244  8252.25
 245  8495.841
 246  8556.628
 247  8523.918
 248  8096.484
 249  7825.406
 250  7915.715
 251  8125.764
 252  8500.509
 253  8519.988
 254  8499.818
 255  8409.148
 256  8436.094
 257  8651.692
 258  8909.033
 259  8422.142
 260  8202.554
 261  8450.797
 262  8505.801
 263  8547.556
 264  8299.456
 265  8485.733
 266  8533.064
 267  8411.054
 268  8329.231
 269  8315.582
 270  8347.007
 271  8282.391
 272  8022.806
 273  8187.207
 274  8146.329
 275  8150.985
 276  7916.06
 277  7887.142
 278  8259.381
 279  8940.771
 280  9130.671
 281  9137.72
 282  8395.668
 283  8020.307
 284  8199.829
 285  8404.204
 286  8774.506
 287  8344.411
 288  7847.358
 289  7135.534
 290  7341.349
 291  7656.669
 292  7803.043
 293  7819.687
 294  7450.614
 295  7512.408
 296  8156.334
 297  7738.727
 298  7632.837
 299  7365.896
 300  7496.318
 301  7064.265
 302  7196.835
 303  7397.989
 304  6987.476
 305  7188.698
 306  7156.776
 307  6586.003
 308  6448.261
 309  7032.751
 310  7010.584
 311  6098.957
 312  5853.357
 313  5932.942
 314  6391.682
 315  6760.83
 316  7157.311
 317  7362.812
 318  6814.951
 319  6468.643
 320  6528.728
 321  6751.122
 322  6987.799
 323  7248.153
 324  7361.046
 325  7045.228
 326  6858.676
 327  7006.372
 328  6795.51
 329  7089.141
 330  7376.212
 331  7331.939
 332  7462.471
 333  7746.541
 334  7470.598
 335  7507.008
 336  7576.095
 337  7324.896
 338  6667.179
 339  6991.583
 340  6935.944
 341  7183.176
 342  7252.033
 343  7135.281
 344  7069.915
 345  7036.395
 346  7327.631
 347  7378.297
 348  7282.881
 349  7392.79
 350  7580.55
 351  7230.63
 352  7540.018
 353  7705.519
 354  7872.252
 355  7375.787
 356  7402.285
 357  8277.63
 358  8574.532
 359  8465.02
 360  8709.682
 361  8677.55
 362  8124.104
 363  7925.669
 364  8233.406
 365  7658.916
 366  8077.847
 367  7995.234
 368  7613.06
 369  7730.382
 370  7382.535
 371  7882.04
 372  8094.126
 373  8106.132
 374  7653.5
 375  7609.29
 376  7352.111
 377  7363.69
 378  7045.247
 379  6992.491
 380  7599.041
 381  7884.191
 382  7713.695
 383  7206.372
 384  7336.837
 385  7428.375
 386  7108.124
 387  7009.665
 388  7543.637
 389  7815.107
 390  7778.807
 391  7515.452
 392  7339.601
 393  7085.427
 394  7105.611
 395  7519.804
 396  7863.024
 397  7469.746
 398  7347.858
 399  7756.43
 400  7474.198
 401  7271.603
 402  7801.592
 403  7670.709
 404  7654.629
 405  8053.409
 406  7871.307
 407  8024.146
 408  7866.793
 409  7623.658
 410  7603.878
 411  7762.31
 412  7580.103
 413  7911.399
 414  7843.625
 415  7527.778
 416  7417.904
 417  7170.034
 418  7417.82
 419  7359.025
 420  7558.821
 421  7013.813
 422  6909.432
 423  7187.189
 424  6830.798
 425  7443.863
 426  7500.614
 427  7154.543
 428  7403.709
 429  7680.842
 430  7525.843
 431  7196.262
 432  7505.792
 433  7683.884
 434  7674.583
 435  6937.936
 436  7314.569
 437  7416.154
 438  7276.385
 439  7088.215
 440  7369.043
 441  7342.833
 442  7333.227
 443  6660.175
 444  6430.219
 445  6770.847
 446  6789.564
 447  7242.063
 448  7215.478
 449  7367.294
 450  6575.63
 451  6179.18
 452  5760.245
 453  5979.325
 454  6534.984
 455  6081.396
 456  6187.73
 457  6585.002
 458  6465.583
 459  6148.099
 460  5936.955
 461  6068.375
 462  5838.009
 463  5808.062
 464  5865.052
 465  5818.39
 466  5858.428
 467  6498.032
 468  6670.262
 469  6671.595
 470  6145.76
 471  6554.024
 472  6853.671
 473  6738.333
 474  6696.183
 475  7240.66
 476  7304.63
 477  7270.791
 478  6945.981
 479  7061.028
 480  6731.475
 481  6368.058
 482  6978.588
 483  6815.584
 484  6386.143
 485  6308.329
 486  6384.782
 487  6254.75
 488  5978.787
 489  6198.59
 490  6325.19
 491  6108.059
 492  6111.337
 493  6548.57
 494  7303.83
 495  7176.311
 496  6898.708
 497  7235.902
 498  7567.018
 499  7494.627
 500  7126.706
 501  7306.129
 502  7062.533
 503  6948.265
 504  7617.409
 505  7384.665
 506  6792.378
 507  6783.68
 508  7329.26
 509  7141.708
 510  7129.556
 511  7855.845
