# Input file       =  1203871285.120302_cleaned.dat
# Candidate        =  PSR_0332+5434
# Telescope        =  AR
# Epoch_topo       =  58177.695649540532
# Epoch_bary       =  N/A
# T_sample         =  0.002
# Data Folded      =  7340032
# Data Avg         =  0.0407909256363481
# Data StdDev      =  1.00016009194732 
# Profile Bins     =  512
# Profile Avg      =  584.811486886542 
# Profile StdDev   =  119.752204671718 
# Reduced chi-sqr  =  0.656
# Prob(Noise)      <  1   (~0.0 sigma)
# P_topo (ms)      =  714.580777965392  +/- 0.000812
# P'_topo (s/s)    =  -0                +/- 4.28e-10
# P''_topo (s/s^2) =  0                 +/- 1.89e-13
# P_bary (ms)      =  N/A
# P'_bary (s/s)    =  N/A
# P''_bary (s/s^2) =  N/A
# P_orb (s)        =  N/A
# asin(i)/c (s)    =  N/A
# eccentricity     =  N/A
# w (rad)          =  N/A
# T_peri           =  N/A
######################################################
   0  651.7083
   1  638.2794
   2  635.0458
   3  656.4064
   4  567.2645
   5  556.8613
   6  572.5633
   7  604.5387
   8  568.762
   9  553.0781
  10  610.8057
  11  516.8463
  12  394.6883
  13  476.5905
  14  444.7573
  15  530.15
  16  531.9135
  17  590.4948
  18  573.6318
  19  572.2822
  20  528.5209
  21  428.8798
  22  355.8697
  23  484.483
  24  603.1026
  25  668.4446
  26  546.1345
  27  533.1769
  28  513.0854
  29  574.8527
  30  627.6074
  31  549.9114
  32  510.257
  33  492.4877
  34  574.52
  35  576.205
  36  530.1971
  37  451.4118
  38  518.8644
  39  516.267
  40  569.761
  41  651.9284
  42  598.6545
  43  700.2737
  44  720.971
  45  683.2511
  46  673.5507
  47  613.0549
  48  679.0095
  49  681.23
  50  644.2177
  51  620.2564
  52  616.4393
  53  561.4634
  54  620.4518
  55  577.2364
  56  536.2933
  57  619.8411
  58  597.6534
  59  463.4323
  60  456.7921
  61  547.2946
  62  574.7791
  63  542.8033
  64  540.8745
  65  612.2593
  66  513.5967
  67  501.3126
  68  661.6533
  69  576.1436
  70  542.4998
  71  515.1091
  72  573.8226
  73  583.7392
  74  597.0205
  75  646.5769
  76  596.5773
  77  578.5432
  78  494.6684
  79  457.476
  80  565.3127
  81  618.8142
  82  664.6301
  83  657.5364
  84  597.2838
  85  476.269
  86  577.1136
  87  597.0366
  88  520.1388
  89  515.9139
  90  471.7565
  91  493.8697
  92  556.9991
  93  503.8496
  94  431.9721
  95  445.9656
  96  432.2061
  97  495.6659
  98  594.1609
  99  549.7509
 100  513.9937
 101  520.4545
 102  506.7654
 103  534.5476
 104  512.2827
 105  523.7718
 106  581.1786
 107  584.7905
 108  525.5668
 109  554.7961
 110  571.417
 111  568.1974
 112  521.1674
 113  492.2775
 114  494.9274
 115  548.6992
 116  552.8648
 117  569.0618
 118  437.6997
 119  466.1422
 120  434.924
 121  471.2402
 122  575.2783
 123  657.0284
 124  606.5167
 125  542.243
 126  488.8547
 127  569.3068
 128  618.7374
 129  580.739
 130  501.2982
 131  536.5024
 132  597.7704
 133  518.4938
 134  512.1138
 135  704.9068
 136  653.8624
 137  564.4672
 138  505.4708
 139  528.5372
 140  574.7604
 141  640.4166
 142  492.1038
 143  488.1149
 144  546.5874
 145  618.0014
 146  575.035
 147  588.8801
 148  565.5717
 149  563.6779
 150  625.6321
 151  640.5443
 152  559.1488
 153  606.1761
 154  614.325
 155  552.3533
 156  586.436
 157  575.8699
 158  555.8762
 159  555.1371
 160  577.1966
 161  627.4047
 162  689.3566
 163  576.7051
 164  575.749
 165  684.5927
 166  621.124
 167  588.1558
 168  663.2671
 169  696.6823
 170  613.0229
 171  592.6348
 172  611.2357
 173  539.0561
 174  559.2823
 175  606.4014
 176  561.1847
 177  494.1935
 178  564.6504
 179  541.8107
 180  544.7105
 181  548.0126
 182  675.3864
 183  559.7791
 184  512.3897
 185  534.6125
 186  570.1107
 187  566.1171
 188  503.3047
 189  493.6998
 190  491.7516
 191  539.5728
 192  506.5528
 193  523.2722
 194  566.2523
 195  560.4194
 196  615.267
 197  634.7934
 198  665.2612
 199  649.574
 200  667.235
 201  640.5182
 202  661.9709
 203  620.0627
 204  593.0849
 205  496.9193
 206  556.5995
 207  637.2679
 208  660.168
 209  695.5753
 210  698.2167
 211  607.4065
 212  614.1874
 213  596.4841
 214  580.1282
 215  593.3959
 216  632.3422
 217  696.3723
 218  629.7503
 219  583.1368
 220  598.1995
 221  596.6268
 222  491.0784
 223  524.7251
 224  622.8459
 225  652.3275
 226  716.293
 227  765.9626
 228  664.0916
 229  604.0289
 230  613.8147
 231  593.6907
 232  653.4459
 233  763.7261
 234  661.497
 235  602.7335
 236  646.7228
 237  675.0024
 238  705.0527
 239  670.9581
 240  674.2468
 241  603.4775
 242  577.9725
 243  645.5142
 244  632.6655
 245  608.7424
 246  621.73
 247  630.0048
 248  590.2305
 249  564.7908
 250  590.7096
 251  617.8882
 252  642.1935
 253  645.53
 254  663.1011
 255  624.027
 256  647.6213
 257  696.1333
 258  796.9672
 259  642.231
 260  584.1017
 261  626.2108
 262  664.1556
 263  663.0454
 264  606.857
 265  691.2383
 266  644.835
 267  608.9907
 268  652.4517
 269  679.1247
 270  656.0415
 271  719.913
 272  676.4989
 273  654.4758
 274  638.7772
 275  641.8975
 276  619.8707
 277  604.3194
 278  606.9929
 279  675.6667
 280  700.987
 281  757.7451
 282  707.9095
 283  652.7673
 284  651.8181
 285  689.799
 286  756.4306
 287  712.0955
 288  523.0529
 289  460.3513
 290  545.2219
 291  584.0274
 292  587.5146
 293  601.9974
 294  570.6202
 295  589.0693
 296  709.9991
 297  613.4245
 298  574.4446
 299  570.1725
 300  603.1629
 301  544.8163
 302  601.1788
 303  628.3785
 304  544.996
 305  538.0239
 306  546.7983
 307  516.7698
 308  522.8813
 309  554.8487
 310  599.3383
 311  456.7266
 312  467.3804
 313  480.3479
 314  520.2435
 315  609.3615
 316  624.7536
 317  665.88
 318  566.7321
 319  545.5825
 320  579.7333
 321  595.3437
 322  596.7227
 323  562.7951
 324  580.8915
 325  527.5283
 326  555.907
 327  585.0204
 328  505.6712
 329  569.78
 330  631.1431
 331  601.0444
 332  547.4565
 333  601.2037
 334  572.4941
 335  591.2091
 336  598.1832
 337  589.8304
 338  446.7379
 339  480.9105
 340  477.0462
 341  541.7619
 342  616
 343  578.7604
 344  540.439
 345  569.0469
 346  585.4259
 347  607.238
 348  560.7795
 349  634.4467
 350  649.3045
 351  611.8249
 352  673.788
 353  702.7188
 354  741.8289
 355  604.8614
 356  581.5108
 357  761.3146
 358  842.8535
 359  769.4816
 360  812.806
 361  815.5833
 362  695.8057
 363  633.9348
 364  694.7889
 365  585.6956
 366  618.8143
 367  649.7693
 368  589.6325
 369  636.0225
 370  579.7795
 371  669.6069
 372  693.3622
 373  594.4647
 374  551.0032
 375  599.6091
 376  526.7001
 377  572.3964
 378  496.3923
 379  496.3204
 380  602.2028
 381  637.5839
 382  598.5301
 383  539.9898
 384  555.9785
 385  591.7454
 386  555.6002
 387  598.9698
 388  639.0274
 389  554.3491
 390  545.4632
 391  554.5671
 392  522.1225
 393  499.0945
 394  574.5185
 395  586.8354
 396  678.1152
 397  634.1136
 398  579.102
 399  666.3683
 400  550.478
 401  524.8497
 402  649.1964
 403  589.2117
 404  613.2789
 405  644.7748
 406  567.29
 407  605.5908
 408  644.1254
 409  617.0974
 410  614.5951
 411  641.02
 412  612.0059
 413  623.3761
 414  604.7128
 415  594.4112
 416  603.9657
 417  568.6434
 418  642.6685
 419  615.9591
 420  645.793
 421  502.3128
 422  458.5945
 423  581.5553
 424  469.9969
 425  550.275
 426  613.8412
 427  535.762
 428  556.6755
 429  629.0672
 430  684.4703
 431  630.9791
 432  624.9893
 433  669.0761
 434  643.3972
 435  504.5943
 436  544.1564
 437  639.1772
 438  547.0509
 439  566.2253
 440  617.5005
 441  572.7386
 442  606.1647
 443  495.6573
 444  472.4043
 445  565.6847
 446  557.6156
 447  644.7347
 448  622.4326
 449  626.5955
 450  520.8542
 451  494.6894
 452  484.5322
 453  562.352
 454  634.1993
 455  611.0305
 456  603.866
 457  626.1799
 458  511.8518
 459  485.5446
 460  495.9691
 461  518.066
 462  491.2463
 463  524.4982
 464  550.5157
 465  486.6117
 466  436.0647
 467  574.6494
 468  567.5903
 469  551.2429
 470  463.933
 471  516.9471
 472  623.6959
 473  583.192
 474  535.6135
 475  670.311
 476  638.7264
 477  573.8445
 478  543.0651
 479  533.4114
 480  548.8162
 481  462.2816
 482  518.7641
 483  479.8789
 484  446.9983
 485  544.5157
 486  553.0944
 487  519.0123
 488  422.1458
 489  447.7598
 490  469.4862
 491  436.917
 492  537.1204
 493  636.7618
 494  712.4661
 495  617.4882
 496  579.7797
 497  591.69
 498  610.6887
 499  600.6676
 500  605.947
 501  745.1992
 502  655.2584
 503  574.0239
 504  660.0765
 505  612.1916
 506  550.6701
 507  557.8696
 508  644.8304
 509  549.8333
 510  522.589
 511  620.4665
