# Input file       =  1204564430.106454_cleaned.dat
# Candidate        =  PSR_0332+5434
# Telescope        =  AR
# Epoch_topo       =  58185.718160954326
# Epoch_bary       =  N/A
# T_sample         =  0.002
# Data Folded      =  7340032
# Data Avg         =  0.118043882249497
# Data StdDev      =  4.4164298092762  
# Profile Bins     =  512
# Profile Avg      =  1692.5224933028  
# Profile StdDev   =  528.792551009501 
# Reduced chi-sqr  =  0.830
# Prob(Noise)      <  0.998   (~0.0 sigma)
# P_topo (ms)      =  714.579670176078  +/- 0.000561
# P'_topo (s/s)    =  -0                +/- 2.96e-10
# P''_topo (s/s^2) =  0                 +/- 1.31e-13
# P_bary (ms)      =  N/A
# P'_bary (s/s)    =  N/A
# P''_bary (s/s^2) =  N/A
# P_orb (s)        =  N/A
# asin(i)/c (s)    =  N/A
# eccentricity     =  N/A
# w (rad)          =  N/A
# T_peri           =  N/A
######################################################
   0  1780.53
   1  1890.227
   2  1591.374
   3  1339.116
   4  1398.294
   5  1532.273
   6  1474.038
   7  1451.014
   8  1636.426
   9  1805.927
  10  1645.975
  11  1746.442
  12  1641.283
  13  1510.297
  14  1561.292
  15  1756.856
  16  1855.768
  17  1769.793
  18  1753.921
  19  1889.713
  20  1965.105
  21  2033.868
  22  2463.066
  23  2447.59
  24  2401.092
  25  2940.622
  26  2599.563
  27  2384.962
  28  2117.287
  29  2068.144
  30  2242.034
  31  2087.451
  32  2041.349
  33  2451.582
  34  2436.831
  35  2358.675
  36  1958.595
  37  1764.403
  38  1645.914
  39  1675.278
  40  1829.975
  41  2058.182
  42  1683.743
  43  1673.124
  44  1561.207
  45  2157.684
  46  2000.449
  47  1877.96
  48  2067.781
  49  1542.719
  50  1769.352
  51  1541.276
  52  1710.412
  53  1489.15
  54  1360.931
  55  1423.318
  56  1330.117
  57  1663.849
  58  1447.007
  59  1482.799
  60  1690.572
  61  1664.978
  62  1752.866
  63  1691.233
  64  1544.384
  65  1715.313
  66  1630.203
  67  1895.502
  68  2353.055
  69  2032.65
  70  1896.366
  71  1866.19
  72  1392.485
  73  1815.144
  74  1866.79
  75  2018.211
  76  1874.734
  77  1490.487
  78  1728.112
  79  2049.994
  80  2053.358
  81  2011.18
  82  1969.763
  83  2170.678
  84  1901.89
  85  1548.864
  86  1475.009
  87  1517.862
  88  1762.386
  89  2121.888
  90  1795.854
  91  1530.316
  92  1973.672
  93  2098.638
  94  2006.699
  95  1767.522
  96  1534.165
  97  1729.216
  98  1982.417
  99  2505.141
 100  1851.628
 101  1755.947
 102  1975.057
 103  1873.14
 104  1659.521
 105  1951.245
 106  2623.282
 107  2493.861
 108  1894.285
 109  1464.066
 110  1780.744
 111  1619.687
 112  1732.39
 113  2012.678
 114  1803.28
 115  1681.508
 116  1931.672
 117  1721.037
 118  1407.945
 119  1647.397
 120  1822.621
 121  1831.287
 122  1713.11
 123  1527.479
 124  1391.578
 125  1369.004
 126  1619.703
 127  1999.066
 128  1783.231
 129  1500.051
 130  1026.369
 131  1222.85
 132  1734.265
 133  1814.165
 134  1658.838
 135  1658.671
 136  1751.556
 137  1612.751
 138  1429.902
 139  1233.287
 140  1243.18
 141  1639.468
 142  1205.547
 143  1473.03
 144  2026.625
 145  2130.602
 146  1825.737
 147  1818.181
 148  2139.456
 149  1802.463
 150  1850.306
 151  1781.047
 152  1425.037
 153  1690.71
 154  1724.277
 155  1658.28
 156  1787.336
 157  1859.96
 158  1879.844
 159  2130.693
 160  1880.243
 161  1927.347
 162  1996.214
 163  2129.989
 164  2262.181
 165  1961.392
 166  1628.682
 167  1606.485
 168  1608.061
 169  1428.788
 170  1732.867
 171  1880.77
 172  1773.007
 173  2008.106
 174  2235.961
 175  1802.786
 176  1687.704
 177  1843.068
 178  1955.339
 179  2305.854
 180  1955.309
 181  1570.619
 182  1686.268
 183  1920.271
 184  1987.589
 185  1657.186
 186  1451.333
 187  1658.837
 188  1565.717
 189  1055.12
 190  1011.124
 191  1192.676
 192  1402.718
 193  1366.87
 194  1446.077
 195  1692.887
 196  1836.854
 197  1856.078
 198  2175.029
 199  1915.063
 200  1703.722
 201  1606.245
 202  1691.319
 203  1852.127
 204  1996.689
 205  1829.73
 206  2079.681
 207  1688.075
 208  1585.29
 209  1539.881
 210  1814.851
 211  1997.353
 212  1713.533
 213  1345.655
 214  1903.126
 215  2079.206
 216  1733.564
 217  1540.269
 218  1586.486
 219  1502.291
 220  1471.282
 221  1219.574
 222  1554.333
 223  1635.428
 224  1624.701
 225  1115.299
 226  1197.087
 227  1382.858
 228  1451.287
 229  1515.778
 230  1506.193
 231  1777.578
 232  1714.141
 233  1605.086
 234  1512.76
 235  1483.125
 236  1371.876
 237  1331.773
 238  1450.2
 239  1642.272
 240  1543.259
 241  1832.19
 242  2144.999
 243  1838.795
 244  1906.851
 245  2291.54
 246  1776.318
 247  2281.198
 248  2438.751
 249  2309.027
 250  2135.216
 251  2590.3
 252  2202.133
 253  1757.279
 254  1778.696
 255  1864.655
 256  2417.919
 257  1855.327
 258  1380.916
 259  1647.89
 260  1537.2
 261  1757.312
 262  1443.295
 263  1498.333
 264  1773.502
 265  1667.584
 266  1582.13
 267  1803.427
 268  1854.436
 269  1626.038
 270  1374.915
 271  1672.065
 272  1717.138
 273  1772.818
 274  1665.641
 275  1789.533
 276  1501.497
 277  1178.632
 278  1386.291
 279  1185.532
 280  1581.171
 281  1534.447
 282  1740.337
 283  1372.425
 284  1114.751
 285  1377.375
 286  1753.157
 287  1551.82
 288  1456.594
 289  1346.534
 290  1547.896
 291  1519.825
 292  1047.275
 293  1133.583
 294  1117.386
 295  1274.035
 296  1426.514
 297  1786.749
 298  1796.978
 299  1551.006
 300  1364.169
 301  1469.884
 302  1202.323
 303  1142.75
 304  1262.573
 305  1375.998
 306  1030.7
 307  850.5308
 308  1042.559
 309  826.7864
 310  1011.156
 311  1323.045
 312  1472.115
 313  1352.954
 314  1359.58
 315  1274.149
 316  1626.207
 317  1902.088
 318  1524.377
 319  1241.031
 320  1584.421
 321  1659.293
 322  1530.772
 323  1665.071
 324  1660.978
 325  1867.585
 326  1698.12
 327  1700.381
 328  1801.609
 329  1763.486
 330  1680.249
 331  1651.95
 332  1809.554
 333  1869.962
 334  1842.14
 335  1904.182
 336  1869.205
 337  1688.062
 338  1558.906
 339  1129.923
 340  1357.913
 341  1091.706
 342  1254.876
 343  1232.464
 344  1173.978
 345  1499.782
 346  1520.364
 347  1357.875
 348  1116.988
 349  1222.875
 350  1078.167
 351  743.1434
 352  865.2491
 353  1289.523
 354  1141.001
 355  983.2014
 356  1289.426
 357  1260.578
 358  1332.945
 359  1441.665
 360  1304.737
 361  1051.303
 362  1093.642
 363  1495.796
 364  1257.954
 365  1382.074
 366  1356.784
 367  1237.526
 368  1319.578
 369  926.9823
 370  966.5236
 371  871.3364
 372  1295.305
 373  1455.678
 374  1419.573
 375  1313.479
 376  999.2668
 377  1255.637
 378  1410.531
 379  1496.147
 380  1438.65
 381  1503.849
 382  1503.241
 383  1428.044
 384  1468.285
 385  1463.358
 386  1690.027
 387  1443.363
 388  1370.381
 389  1825.726
 390  2062.508
 391  1769.641
 392  1625.09
 393  1695.149
 394  1471.969
 395  1611.923
 396  2208.273
 397  1728.895
 398  1669.482
 399  2084.456
 400  1874.129
 401  1787.59
 402  1671.732
 403  1629.391
 404  1863.938
 405  2323.004
 406  2778.026
 407  3200.448
 408  3491.8
 409  3352.333
 410  2418.369
 411  2077.31
 412  1805.622
 413  1317.876
 414  1887.045
 415  1928.625
 416  1808.02
 417  1905.391
 418  1803.711
 419  1754.893
 420  1745.614
 421  1382.451
 422  1608.06
 423  1967.732
 424  1676.748
 425  1707.033
 426  1649.969
 427  1788.479
 428  1832.202
 429  1555.201
 430  1877.484
 431  1658.64
 432  1445.871
 433  1718.794
 434  1717.878
 435  1490.761
 436  1616.295
 437  1742.116
 438  1884.378
 439  2045.515
 440  1654.685
 441  1706.199
 442  1688.653
 443  1828.965
 444  1892.495
 445  1703.557
 446  1761.06
 447  1938.219
 448  1660.889
 449  1893.82
 450  1527.301
 451  1561.241
 452  1756.087
 453  1749.4
 454  2003.516
 455  1824.324
 456  1666.672
 457  2087.044
 458  2233.287
 459  2023.359
 460  2000.689
 461  1852.696
 462  1785.729
 463  1865.093
 464  2130.456
 465  2095.104
 466  1946.827
 467  1615.678
 468  2196.274
 469  2139.387
 470  1843.245
 471  1803.012
 472  2102.596
 473  2205.473
 474  1698.196
 475  1707.316
 476  1770.064
 477  1855.426
 478  1985.086
 479  1927.71
 480  2042.295
 481  2050.2
 482  1721.682
 483  1772.892
 484  1404.154
 485  1332.308
 486  1657.31
 487  1515.968
 488  1449.164
 489  1137.283
 490  1438.791
 491  1521.209
 492  1692.53
 493  1897.147
 494  1730.804
 495  1658.037
 496  1578.343
 497  1222.158
 498  1259.111
 499  1356.504
 500  1381.23
 501  1012.316
 502  1322.019
 503  1613.215
 504  1755.09
 505  1907.898
 506  1595.231
 507  1630.074
 508  1409.95
 509  1766.7
 510  1700.039
 511  1642.5
