# Input file       =  1205425822.113558_cleaned.dat
# Candidate        =  PSR_0332+5434
# Telescope        =  AR
# Epoch_topo       =  58195.687975851368
# Epoch_bary       =  N/A
# T_sample         =  0.002
# Data Folded      =  7340032
# Data Avg         =  0.233885349378397
# Data StdDev      =  5.72649098591074 
# Profile Bins     =  1024
# Profile Avg      =  1676.44248929099 
# Profile StdDev   =  484.827873080733 
# Reduced chi-sqr  =  0.868
# Prob(Noise)      <  0.999   (~0.0 sigma)
# P_topo (ms)      =  714.576605791818  +/- 0.00082
# P'_topo (s/s)    =  -0                +/- 4.33e-10
# P''_topo (s/s^2) =  0                 +/- 1.91e-13
# P_bary (ms)      =  N/A
# P'_bary (s/s)    =  N/A
# P''_bary (s/s^2) =  N/A
# P_orb (s)        =  N/A
# asin(i)/c (s)    =  N/A
# eccentricity     =  N/A
# w (rad)          =  N/A
# T_peri           =  N/A
######################################################
   0  1860.748
   1  1994.07
   2  2009.866
   3  1848.798
   4  1913.196
   5  2040.974
   6  2040.136
   7  1892.411
   8  1725.685
   9  1730.967
  10  1710.928
  11  1804.596
  12  1634.656
  13  1580.62
  14  1514.556
  15  1659.857
  16  1719.851
  17  1755.214
  18  1636.991
  19  1681.551
  20  1643.412
  21  1731.619
  22  1763.575
  23  1709.196
  24  1645.01
  25  1628.347
  26  1735.724
  27  1818.51
  28  1780.178
  29  1833.117
  30  1762.785
  31  1758.054
  32  1796.207
  33  1734.87
  34  1691.675
  35  1584.875
  36  1778.49
  37  1886.376
  38  1910.871
  39  1937.195
  40  1987.248
  41  1994.362
  42  1896.885
  43  1857.696
  44  1919.119
  45  1889.305
  46  1854.027
  47  1765.864
  48  1893.139
  49  1874.824
  50  1884.23
  51  1850.372
  52  1802.645
  53  1750.315
  54  1679.714
  55  1649.259
  56  1618.598
  57  1688.709
  58  1743.89
  59  1761.115
  60  1783.435
  61  1729.635
  62  1702.902
  63  1663.471
  64  1637.779
  65  1652.953
  66  1677.456
  67  1693.736
  68  1717.482
  69  1744.218
  70  1653.524
  71  1704.636
  72  1677.575
  73  1820.035
  74  1774.373
  75  1839.187
  76  1842.352
  77  1911.024
  78  1912.207
  79  1831.589
  80  1809.762
  81  1869.964
  82  1954.415
  83  2008.889
  84  1890.229
  85  1822.968
  86  1845.4
  87  1922.316
  88  1920.489
  89  1944.312
  90  1973.943
  91  1906.107
  92  1864.688
  93  1825.376
  94  1844.957
  95  1771.799
  96  1794.847
  97  1796.583
  98  1683.108
  99  1667.845
 100  1824.613
 101  1989.659
 102  2002.524
 103  1963.715
 104  1948.173
 105  1942.251
 106  1795.76
 107  1815.67
 108  1846.583
 109  1944.656
 110  2020.054
 111  1989.573
 112  1956.974
 113  1811.606
 114  1902.365
 115  2131.347
 116  2276.758
 117  2199.239
 118  2102.391
 119  2115.969
 120  2145.37
 121  1943.257
 122  1876.333
 123  1962.959
 124  2286.013
 125  2245.738
 126  2120.927
 127  1996.86
 128  2012.058
 129  1991.889
 130  1994.67
 131  2027.721
 132  2206.859
 133  2238.444
 134  2295.067
 135  2274.177
 136  2301.755
 137  2144.262
 138  2101.1
 139  2208.984
 140  2266.912
 141  2309.614
 142  2180.283
 143  1996.829
 144  1912.716
 145  1883.853
 146  2023.28
 147  1960.407
 148  2062.303
 149  2024.719
 150  2082.156
 151  1981.115
 152  2030.363
 153  1949.748
 154  1855.233
 155  1703.655
 156  1694.872
 157  1834.781
 158  2047.272
 159  1920.908
 160  1817.96
 161  1971.47
 162  2137.76
 163  2058.373
 164  1725.961
 165  1691.367
 166  1508.247
 167  1479.069
 168  1350.913
 169  1390.65
 170  1394.871
 171  1375.89
 172  1581.103
 173  1616.262
 174  1594.431
 175  1549.728
 176  1452.604
 177  1554.84
 178  1522.531
 179  1563.722
 180  1604.024
 181  1661.443
 182  1626.299
 183  1505.807
 184  1426.374
 185  1454.917
 186  1568.611
 187  1698.969
 188  1715.349
 189  1731.345
 190  1789.155
 191  1840.088
 192  1793.2
 193  1769.026
 194  1744.766
 195  1758.11
 196  1620.463
 197  1627.937
 198  1650.248
 199  1731.454
 200  1677.498
 201  1450.481
 202  1560.935
 203  1654.231
 204  1579.394
 205  1497.069
 206  1565.947
 207  1628.016
 208  1631.901
 209  1581.047
 210  1602.718
 211  1647.688
 212  1573.241
 213  1613.949
 214  1572.685
 215  1654.185
 216  1504.526
 217  1511.708
 218  1524.745
 219  1492.913
 220  1327.445
 221  1368.257
 222  1301.887
 223  1354.256
 224  1445.985
 225  1620.953
 226  1650.544
 227  1577.293
 228  1520.67
 229  1627.512
 230  1648.947
 231  1454.944
 232  1149.288
 233  1340.058
 234  1483.173
 235  1616.65
 236  1435.802
 237  1551.855
 238  1533.98
 239  1637.293
 240  1604.99
 241  1590.223
 242  1649.887
 243  1738.646
 244  1768.642
 245  1833.838
 246  1890.728
 247  1901.859
 248  1838.449
 249  1786.585
 250  1839.98
 251  1761.418
 252  1626.558
 253  1591.173
 254  1685.839
 255  1809.095
 256  1850.761
 257  1828.475
 258  1648.294
 259  1586.619
 260  1557.95
 261  1493.036
 262  1393.312
 263  1386.092
 264  1428.712
 265  1527.72
 266  1582.496
 267  1615.154
 268  1615.959
 269  1712.732
 270  1683.912
 271  1756.685
 272  1824.986
 273  1866.998
 274  1788.823
 275  1708.106
 276  1677.113
 277  1728.672
 278  1659.917
 279  1638.033
 280  1458.833
 281  1445.157
 282  1457.248
 283  1513.921
 284  1479.717
 285  1603.325
 286  1793.885
 287  1893.38
 288  1756.763
 289  1715.975
 290  1638.948
 291  1570.553
 292  1448.558
 293  1414.314
 294  1379.558
 295  1429.91
 296  1428.834
 297  1493.557
 298  1533.601
 299  1612.399
 300  1597.289
 301  1689.798
 302  1723.059
 303  1684.61
 304  1685.38
 305  1721.007
 306  1781.374
 307  1670.68
 308  1652.954
 309  1525.267
 310  1464.261
 311  1481.917
 312  1439.693
 313  1370.046
 314  1341.67
 315  1440.24
 316  1615.319
 317  1745.178
 318  1756.485
 319  1663.034
 320  1682.345
 321  1615.485
 322  1695.11
 323  1500.489
 324  1373.681
 325  1279.486
 326  1374.011
 327  1359.994
 328  1400.747
 329  1448.783
 330  1484.425
 331  1582.363
 332  1517.201
 333  1516.603
 334  1371.025
 335  1361.235
 336  1265.054
 337  1274.129
 338  1247.021
 339  1384.541
 340  1463.705
 341  1539.289
 342  1424.426
 343  1280.828
 344  1167.668
 345  1152.004
 346  1221.446
 347  1400.812
 348  1482.015
 349  1418.317
 350  1343.785
 351  1327.15
 352  1291.923
 353  1428.929
 354  1425.826
 355  1492.964
 356  1506.924
 357  1584.902
 358  1624.739
 359  1608.711
 360  1625.596
 361  1694.52
 362  1769.847
 363  1657.151
 364  1645.998
 365  1603.149
 366  1597.818
 367  1527.434
 368  1495.761
 369  1446.156
 370  1533.783
 371  1434.388
 372  1244.012
 373  1134.74
 374  1268.32
 375  1463.772
 376  1403.176
 377  1196.969
 378  1141.194
 379  1141.252
 380  1274.999
 381  1313.316
 382  1323.235
 383  1287.546
 384  1259.326
 385  1201.127
 386  1130.248
 387  1185.862
 388  1251.721
 389  1352.88
 390  1401.957
 391  1310.234
 392  1217.146
 393  1012.434
 394  1073.737
 395  1175.554
 396  1371.349
 397  1291.709
 398  1195.853
 399  1158.341
 400  1302.067
 401  1441.729
 402  1443.776
 403  1520.002
 404  1489.094
 405  1511.499
 406  1638.773
 407  1655.238
 408  1571.741
 409  1410.496
 410  1381.711
 411  1396.562
 412  1235.478
 413  1222.821
 414  1212.616
 415  1287.561
 416  1317.99
 417  1390.106
 418  1476.473
 419  1592.97
 420  1553.901
 421  1541.428
 422  1366.252
 423  1281.558
 424  1453.574
 425  1547.922
 426  1563.727
 427  1490.655
 428  1479.844
 429  1544.959
 430  1628.343
 431  1647.148
 432  1625.225
 433  1532.622
 434  1430.951
 435  1516.969
 436  1535.9
 437  1490.608
 438  1488.295
 439  1591.567
 440  1701.702
 441  1661.23
 442  1624.785
 443  1522.606
 444  1465.451
 445  1472.615
 446  1624.369
 447  1629
 448  1583.16
 449  1550.941
 450  1522.243
 451  1525.48
 452  1491.421
 453  1726.396
 454  1804.901
 455  1836.089
 456  1829.862
 457  1797.583
 458  1691.438
 459  1531.551
 460  1716.494
 461  1783.016
 462  1868.447
 463  1757.261
 464  1800.38
 465  1865.903
 466  1797.873
 467  1776.011
 468  1846.682
 469  1866.77
 470  1714.925
 471  1573.093
 472  1567.825
 473  1421.819
 474  1334.186
 475  1201.426
 476  1336.773
 477  1433.647
 478  1534.133
 479  1514.612
 480  1565.272
 481  1623.998
 482  1648.305
 483  1743.543
 484  1877.213
 485  1740.09
 486  1717.32
 487  1584.031
 488  1549.436
 489  1493.154
 490  1511.516
 491  1557.892
 492  1512.51
 493  1555.133
 494  1332.37
 495  1446.347
 496  1314.365
 497  1327.278
 498  1331.17
 499  1466.453
 500  1515.724
 501  1478.098
 502  1576.777
 503  1633.697
 504  1594.049
 505  1488.349
 506  1496.108
 507  1520.718
 508  1471.01
 509  1299.997
 510  1179.625
 511  1034.06
 512  1039.973
 513  1240.549
 514  1537.583
 515  1608.692
 516  1493.367
 517  1404.768
 518  1337.637
 519  1268.763
 520  1243.426
 521  1227.567
 522  1355.323
 523  1633.041
 524  1626.945
 525  1565.683
 526  1398.548
 527  1181.005
 528  1168.656
 529  1287.751
 530  1484.09
 531  1470.202
 532  1373.564
 533  1375.578
 534  1411.2
 535  1363.009
 536  1357.081
 537  1434.294
 538  1482.939
 539  1393.912
 540  1399.205
 541  1406.922
 542  1387.72
 543  1272.182
 544  1396.091
 545  1439.759
 546  1569.269
 547  1578.141
 548  1548.253
 549  1377.273
 550  1427.527
 551  1449.681
 552  1447.177
 553  1345.33
 554  1450.339
 555  1431.158
 556  1433.102
 557  1329.388
 558  1448.161
 559  1440.154
 560  1318.805
 561  1322.326
 562  1431.107
 563  1525.348
 564  1658.126
 565  1538.994
 566  1419.205
 567  1285.306
 568  1342.337
 569  1374.931
 570  1299.694
 571  1306.95
 572  1430.855
 573  1513.845
 574  1582.05
 575  1560.479
 576  1672.262
 577  1519.155
 578  1532.004
 579  1467.866
 580  1491.387
 581  1495.996
 582  1477.655
 583  1345.654
 584  1175.829
 585  1181.205
 586  1200.573
 587  1390.104
 588  1548.571
 589  1725.687
 590  1609.366
 591  1529.264
 592  1407.424
 593  1433.381
 594  1476.578
 595  1501.278
 596  1555.868
 597  1668.257
 598  1623.272
 599  1609.14
 600  1732.612
 601  2036.211
 602  2209.512
 603  2209.407
 604  2360.838
 605  2488.885
 606  2582.629
 607  2560.994
 608  2500.517
 609  2550.708
 610  2259.368
 611  2298.046
 612  2147.205
 613  2046.737
 614  1813.662
 615  1595.273
 616  1431.368
 617  1393.785
 618  1404.676
 619  1440.323
 620  1384.801
 621  1343.989
 622  1455.431
 623  1483.913
 624  1554.504
 625  1337.199
 626  1217.085
 627  1124.122
 628  1241.759
 629  1465.729
 630  1495.629
 631  1428.855
 632  1497.019
 633  1612.855
 634  1772.092
 635  1898.148
 636  1926.205
 637  1928.466
 638  1861.761
 639  1838.49
 640  1816.322
 641  1620.247
 642  1403.536
 643  1233.155
 644  1383.905
 645  1516.408
 646  1647.548
 647  1559.162
 648  1485.928
 649  1528.421
 650  1763.321
 651  1856.072
 652  1809.047
 653  1574.92
 654  1598.127
 655  1565.388
 656  1699.14
 657  1694.812
 658  1806.034
 659  1679.119
 660  1770.05
 661  1764.622
 662  1644.092
 663  1503.28
 664  1514.266
 665  1565.07
 666  1575.614
 667  1598.585
 668  1771.772
 669  1837.017
 670  1890.164
 671  1904.358
 672  1850.321
 673  1735.116
 674  1658.264
 675  1783.29
 676  1842.14
 677  1889.623
 678  1969.043
 679  2084.18
 680  2056.154
 681  1915.738
 682  1791.312
 683  1684.307
 684  1758.085
 685  1837.597
 686  1952.984
 687  1868.654
 688  1840.111
 689  1864.904
 690  1901.235
 691  1837.941
 692  1827.746
 693  1924.748
 694  2047.828
 695  2178.039
 696  2017.139
 697  1779.454
 698  1551.272
 699  1546.39
 700  1479.951
 701  1435.334
 702  1453.07
 703  1659.526
 704  1765.81
 705  1759.985
 706  1637.435
 707  1570.931
 708  1699.148
 709  1795.448
 710  1776.041
 711  1743.7
 712  1881.653
 713  1859.308
 714  1818.724
 715  1825.666
 716  1911.759
 717  2003.674
 718  1887.801
 719  1950.174
 720  1915.714
 721  1979.232
 722  2041.018
 723  2166.062
 724  1994.455
 725  2120.774
 726  2205.019
 727  2375.901
 728  2327.793
 729  2240.065
 730  2268.81
 731  2132.725
 732  1999.604
 733  1819.958
 734  1863.399
 735  1884.447
 736  1847.114
 737  1809.583
 738  1744.499
 739  1778.302
 740  1832.311
 741  2001.312
 742  1995.892
 743  1914.525
 744  1948.481
 745  1973.84
 746  2031.221
 747  1840.206
 748  1607.463
 749  1617.577
 750  1825.736
 751  1963.713
 752  1967.367
 753  1910.77
 754  1818.861
 755  1949.655
 756  1928.732
 757  1789.21
 758  1657.746
 759  1704.207
 760  1687.493
 761  1701.819
 762  1658.423
 763  1694.278
 764  1577.421
 765  1557.539
 766  1423.501
 767  1366.843
 768  1366.654
 769  1461.587
 770  1496.388
 771  1298.802
 772  1149.364
 773  1095.767
 774  1170.537
 775  1150.834
 776  1235.153
 777  1397.066
 778  1423.862
 779  1413.867
 780  1469.145
 781  1343.541
 782  1343.689
 783  1317.818
 784  1396.961
 785  1251.428
 786  1330.716
 787  1474.309
 788  1682.597
 789  1649.149
 790  1692.107
 791  1808.355
 792  1782.177
 793  1841.879
 794  1710.164
 795  1610.203
 796  1421.906
 797  1352.588
 798  1386.832
 799  1333.073
 800  1455.425
 801  1516.695
 802  1596.149
 803  1430.503
 804  1178.16
 805  1268.742
 806  1323.664
 807  1321.01
 808  1315.029
 809  1521.91
 810  1685.279
 811  1781.708
 812  1860.187
 813  1806.347
 814  1830.263
 815  1755.494
 816  1701.835
 817  1556.251
 818  1560.141
 819  1526.047
 820  1602.07
 821  1645.104
 822  1654.186
 823  1597.019
 824  1697.339
 825  1765.948
 826  1784.114
 827  1902.318
 828  1899.03
 829  1822.403
 830  1662.609
 831  1718.282
 832  1753.084
 833  1680.634
 834  1620.312
 835  1711.299
 836  1860.831
 837  1824.109
 838  1770.552
 839  1760.168
 840  1640.308
 841  1617.978
 842  1692.289
 843  1788.239
 844  1794.845
 845  1717.059
 846  1631.339
 847  1523.51
 848  1539.25
 849  1588.021
 850  1589.038
 851  1501.5
 852  1526.205
 853  1606.29
 854  1772.586
 855  1717.14
 856  1689.878
 857  1650.832
 858  1765.365
 859  1772.602
 860  1756.978
 861  1640.164
 862  1493.794
 863  1493.13
 864  1585.233
 865  1661.564
 866  1625.116
 867  1676.529
 868  1755.186
 869  1868.114
 870  2016.251
 871  1948.155
 872  1756.008
 873  1765.016
 874  1822.947
 875  1871.785
 876  1927.296
 877  1992.984
 878  1904.531
 879  1724.131
 880  1739.947
 881  1738.133
 882  1649.873
 883  1582.358
 884  1581.247
 885  1664.971
 886  1696.212
 887  1849.988
 888  1905.966
 889  1967.222
 890  1794.001
 891  1777.189
 892  1819.124
 893  1877.434
 894  1807.981
 895  1757.741
 896  1790.503
 897  1843.304
 898  1894.669
 899  1766.992
 900  1711.468
 901  1847.309
 902  1929.964
 903  1950.696
 904  1870.28
 905  1883.146
 906  1885.618
 907  1813.981
 908  1813.083
 909  1719.309
 910  1746.923
 911  1842.56
 912  1899.207
 913  1917.748
 914  1881.727
 915  1910.674
 916  1872.269
 917  1982.481
 918  1911.064
 919  1919.98
 920  1891.782
 921  1880.779
 922  1879.288
 923  1874.802
 924  1907.659
 925  1921.183
 926  1953.106
 927  1861.599
 928  1792.22
 929  1713.464
 930  1635.66
 931  1701.124
 932  1734.102
 933  1693.876
 934  1681.515
 935  1719.888
 936  1810.098
 937  1845.986
 938  1953.137
 939  1797.206
 940  1603.54
 941  1588.087
 942  1804.221
 943  1987.949
 944  1888.937
 945  1875.602
 946  1722.769
 947  1943.337
 948  1945.324
 949  2023.391
 950  2011.487
 951  1869.139
 952  1952.091
 953  2031.521
 954  2133.932
 955  2016.736
 956  1973.665
 957  2058.642
 958  2156.97
 959  2052.511
 960  1982.72
 961  1966.965
 962  1992.346
 963  1991.26
 964  1968.953
 965  1843.646
 966  1836.539
 967  1888.214
 968  2018.668
 969  2054.719
 970  2047.842
 971  1973.562
 972  2039.309
 973  2164.539
 974  2094.91
 975  2003.257
 976  1974.114
 977  1930.625
 978  1819.634
 979  1783.489
 980  1756.425
 981  1797.934
 982  1756.823
 983  1880.195
 984  1824.958
 985  1906.814
 986  1966.22
 987  2066.935
 988  2067.234
 989  1987.867
 990  1960.942
 991  2067.243
 992  2114.859
 993  2053.393
 994  1882.117
 995  1828.436
 996  1801.539
 997  1794.922
 998  1713.662
 999  1684.316
1000  1776.366
1001  1827.016
1002  1817.088
1003  1731.654
1004  1689.942
1005  1664.886
1006  1645.312
1007  1616.526
1008  1661.752
1009  1771.607
1010  1755.735
1011  1725.344
1012  1639.024
1013  1737.606
1014  1748.536
1015  1760.733
1016  1660.324
1017  1670.009
1018  1872.333
1019  1967.736
1020  1988.945
1021  1947.101
1022  1919.332
1023  1864.941
