# Input file       =  1205137482.115043_cleaned.dat
# Candidate        =  PSR_0332+5434
# Telescope        =  AR
# Epoch_topo       =  58192.350707350037
# Epoch_bary       =  N/A
# T_sample         =  0.002
# Data Folded      =  7208960
# Data Avg         =  0.660582986675117
# Data StdDev      =  6.47246073083578 
# Profile Bins     =  1024
# Profile Avg      =  4650.51522953145 
# Profile StdDev   =  543.069926714753 
# Reduced chi-sqr  =  2.956
# Prob(Noise)      <  1.65e-196   (~29.9 sigma)
# P_topo (ms)      =  714.577470476232  +/- 1.7e-05
# P'_topo (s/s)    =  -0                +/- 9.16e-12
# P''_topo (s/s^2) =  0                 +/- 4.12e-15
# P_bary (ms)      =  N/A
# P'_bary (s/s)    =  N/A
# P''_bary (s/s^2) =  N/A
# P_orb (s)        =  N/A
# asin(i)/c (s)    =  N/A
# eccentricity     =  N/A
# w (rad)          =  N/A
# T_peri           =  N/A
######################################################
   0  4107.337
   1  4585.667
   2  4909.75
   3  5030.234
   4  4911.589
   5  4819.584
   6  4510.772
   7  4219.618
   8  4008.874
   9  3842.817
  10  3834.585
  11  4047.576
  12  4054.54
  13  4247.523
  14  4305.256
  15  4644.112
  16  4993.426
  17  5395.919
  18  5602.996
  19  5709.57
  20  5620.333
  21  5634.207
  22  5306.515
  23  5223.615
  24  4816.012
  25  4633.418
  26  4590.863
  27  4487.384
  28  4598.323
  29  4355.96
  30  4388.891
  31  4302.438
  32  4387.049
  33  4471.886
  34  4579.762
  35  4689.705
  36  4737.904
  37  4709.708
  38  4623.403
  39  4424.144
  40  4155.443
  41  4245.053
  42  4079.38
  43  4170.638
  44  4230.558
  45  4365.901
  46  4489.637
  47  4491.71
  48  4614.648
  49  4781.939
  50  5193.837
  51  5537.543
  52  5624.461
  53  5748.833
  54  5689.945
  55  5491.973
  56  5345.045
  57  5082.946
  58  4989.011
  59  4710.444
  60  4461.02
  61  4402.446
  62  4360.371
  63  4378.992
  64  4161.673
  65  4247.02
  66  4572.314
  67  4739.271
  68  4871.931
  69  4890.522
  70  4831.146
  71  4792.462
  72  4450.589
  73  4367.606
  74  3906.999
  75  3660.998
  76  3703.234
  77  4006.325
  78  4325.286
  79  4295.315
  80  4286.092
  81  4673.672
  82  4872.673
  83  5185.061
  84  5322.745
  85  5509.632
  86  5724.97
  87  5590.343
  88  5461.736
  89  5082.576
  90  4816.013
  91  4651.758
  92  4356.737
  93  4456.612
  94  4433.449
  95  4448.197
  96  4386.719
  97  4225.167
  98  4287.491
  99  4256.175
 100  4441.693
 101  4796.994
 102  4889.809
 103  4797.188
 104  4518.948
 105  4189.026
 106  4205.298
 107  3913.995
 108  3992.04
 109  3975.575
 110  3982.164
 111  4054.079
 112  3937.247
 113  4139.975
 114  4441.049
 115  4822.632
 116  5022.762
 117  5135.205
 118  5304.734
 119  5378.593
 120  5337.053
 121  5220.548
 122  4854.671
 123  4646.052
 124  4413.484
 125  4391.046
 126  4333.962
 127  4228.333
 128  4319.006
 129  4134.75
 130  4097.458
 131  3985.991
 132  4101.238
 133  4325.479
 134  4526.859
 135  4727.489
 136  4700.251
 137  4331.245
 138  4132.777
 139  3891.08
 140  3794.983
 141  3812.893
 142  3794.697
 143  3815.052
 144  3489.05
 145  3542.965
 146  3784.879
 147  4039.313
 148  4293.166
 149  4751.292
 150  5114.981
 151  5388.644
 152  5315.684
 153  5457.982
 154  5228.33
 155  4902.483
 156  4630.115
 157  4387.346
 158  4274.607
 159  4217.419
 160  4164.209
 161  4235.43
 162  3920.285
 163  4021.097
 164  3955.239
 165  4295.038
 166  4413.246
 167  4721.686
 168  4875.731
 169  4822.66
 170  4554.635
 171  4320.116
 172  4079.55
 173  3871.719
 174  3792.741
 175  3671.29
 176  3688.119
 177  3561.783
 178  3717.799
 179  3989.653
 180  4273.769
 181  4620.201
 182  4944.719
 183  5282.531
 184  5572.546
 185  5596.934
 186  5613.982
 187  5289.671
 188  5050.847
 189  4794.94
 190  4485.326
 191  4365.407
 192  4277.203
 193  4414.172
 194  4323
 195  4213.17
 196  4207.266
 197  4220.308
 198  4401.207
 199  4670.157
 200  4716.548
 201  4751.467
 202  4577.712
 203  4488.404
 204  4241.162
 205  3817.435
 206  3772.969
 207  3563.26
 208  3619.935
 209  3702.71
 210  3816.75
 211  4049.948
 212  4108.129
 213  4291.195
 214  4499.151
 215  4732.162
 216  5200.441
 217  5370.439
 218  5524.425
 219  5533.769
 220  5338.959
 221  5171.75
 222  4581.957
 223  4457.419
 224  4495.715
 225  4462.168
 226  4514.201
 227  4265.883
 228  4257.711
 229  3989.002
 230  3948.711
 231  4134.147
 232  4376.857
 233  4580.685
 234  4820.823
 235  4629.637
 236  4749.484
 237  4452.873
 238  4332.452
 239  4195.568
 240  4085.746
 241  4200.685
 242  3977.395
 243  3948.446
 244  4084.778
 245  4225.598
 246  4420.818
 247  4665.484
 248  5111.521
 249  5511.848
 250  5577.512
 251  5648.874
 252  5601.874
 253  5415.575
 254  5105.406
 255  4542.983
 256  4291.173
 257  4113.547
 258  4314.526
 259  4410.179
 260  4387.986
 261  4245.023
 262  4119.811
 263  4235.241
 264  4425.671
 265  4614.764
 266  4805.659
 267  4782.533
 268  4750.372
 269  4665.249
 270  4448.546
 271  4392.806
 272  4097.556
 273  4068.781
 274  3934.277
 275  3945.437
 276  4173.209
 277  4186.176
 278  4233.426
 279  4278.304
 280  4667.26
 281  5054.894
 282  5294.859
 283  5629.322
 284  6012.107
 285  5749.782
 286  5623.936
 287  5315.125
 288  5268.223
 289  4912.157
 290  4728.036
 291  4714.174
 292  4550.148
 293  4565.116
 294  4443.387
 295  4420.589
 296  4382.688
 297  4405.288
 298  4559.49
 299  4638.813
 300  4857.456
 301  5150.31
 302  5043.707
 303  4654.793
 304  4314.854
 305  4047.805
 306  4051.165
 307  4094.943
 308  4272.161
 309  4324.901
 310  4085.802
 311  4124.54
 312  4341.665
 313  4764.896
 314  5130.534
 315  5414.071
 316  5682.57
 317  5918.071
 318  5890.2
 319  5630.394
 320  5023.541
 321  4829.319
 322  4636.783
 323  4668.815
 324  4704.406
 325  4601.787
 326  4640.697
 327  4585.32
 328  4614.505
 329  4522.997
 330  4589.522
 331  4764.721
 332  4972.417
 333  4875.833
 334  4912.576
 335  4711.4
 336  4607.535
 337  4206.251
 338  4022.413
 339  4041.026
 340  4058.936
 341  4229.227
 342  4173.04
 343  4278.193
 344  4395.491
 345  4538.824
 346  4789.267
 347  5100.092
 348  5225.634
 349  5507.381
 350  5397.852
 351  5495.552
 352  5307.341
 353  5077.595
 354  5025.349
 355  4646.479
 356  4691.198
 357  4508.88
 358  4509.189
 359  4471.551
 360  4324.204
 361  4329.083
 362  4121.393
 363  4087.741
 364  4364.985
 365  4577.775
 366  4843.084
 367  4782.619
 368  4551.882
 369  4413.326
 370  4029.704
 371  4097.188
 372  4045.447
 373  4131.909
 374  4177.895
 375  4132.134
 376  4279.282
 377  4506.623
 378  4553.679
 379  4747.554
 380  4939.311
 381  5272.125
 382  5558.308
 383  5535.862
 384  5623.251
 385  5147.155
 386  4995.806
 387  4688.734
 388  4631.28
 389  4477.394
 390  4339.155
 391  4451.562
 392  4347.781
 393  4370.94
 394  4227.1
 395  4255.592
 396  4231.714
 397  4412.498
 398  4578.024
 399  4850.466
 400  4827.288
 401  4488.211
 402  4254.506
 403  3936.533
 404  3984.43
 405  3795.147
 406  3864.496
 407  3850.931
 408  4003.262
 409  4183.305
 410  4224.147
 411  4401.717
 412  4697.636
 413  5166.604
 414  5504.483
 415  5654.125
 416  5806.549
 417  5767.895
 418  5611.337
 419  5369.536
 420  4967.937
 421  4781.973
 422  4542.705
 423  4483.687
 424  4412.228
 425  4200.953
 426  4334.931
 427  4263.321
 428  4471.33
 429  4493.572
 430  4737.572
 431  4826.206
 432  5010.806
 433  5082.329
 434  5155.389
 435  4823.845
 436  4679.005
 437  4360.204
 438  4059.19
 439  3866.78
 440  3805.283
 441  4043.5
 442  4092.827
 443  4147.086
 444  4169.726
 445  4400.336
 446  4828.555
 447  5413.101
 448  5762.148
 449  5881.616
 450  5842.396
 451  5744.325
 452  5609.508
 453  5054.083
 454  4834.109
 455  4714.904
 456  4904.307
 457  4912.548
 458  4922.334
 459  4843.681
 460  4619.967
 461  4508.312
 462  4492.122
 463  4645.211
 464  4731.318
 465  4949.052
 466  5109.254
 467  5161.758
 468  4852.85
 469  4769.409
 470  4682.416
 471  4691.207
 472  4675.354
 473  4580.285
 474  4536.465
 475  4365.756
 476  4455.947
 477  4608.676
 478  4822.314
 479  5285.559
 480  5627.298
 481  5784.441
 482  5993.043
 483  6037.432
 484  6047.733
 485  5528.289
 486  5307.384
 487  5169.143
 488  4972.912
 489  4926.438
 490  4833.029
 491  4920.059
 492  4766.452
 493  4711.729
 494  4857.73
 495  4983.172
 496  5148.83
 497  5319.668
 498  5373.559
 499  5374.834
 500  5260.908
 501  5110.019
 502  4872.849
 503  4430.584
 504  4376.809
 505  4331.864
 506  4595.892
 507  4731.04
 508  4638.815
 509  4705.356
 510  4838.95
 511  5214.013
 512  5416.302
 513  5550.977
 514  5672.799
 515  5739.083
 516  5689.815
 517  5702.063
 518  5385.396
 519  5291.717
 520  4902.755
 521  4915.814
 522  4854.494
 523  4890.01
 524  5015.171
 525  4826.415
 526  4711.376
 527  4444.761
 528  4435.472
 529  4691.674
 530  4862.51
 531  5062.153
 532  5058.797
 533  4895.54
 534  4797.272
 535  4521.098
 536  4224.489
 537  4031.7
 538  3932.261
 539  4213.551
 540  4174.673
 541  4329.118
 542  4397.652
 543  4622.997
 544  4794.713
 545  4977.33
 546  5327.799
 547  5600.568
 548  5700.414
 549  5668.736
 550  5520.66
 551  5389.174
 552  5041.461
 553  4898.441
 554  4821.127
 555  4632.042
 556  4587.07
 557  4565.132
 558  4598.857
 559  4655.771
 560  4574.446
 561  4715.321
 562  4732.237
 563  4980.6
 564  5042.938
 565  5109.456
 566  5004.946
 567  4761.6
 568  4390.417
 569  4361.789
 570  4169.434
 571  4210.061
 572  4047.431
 573  3971.654
 574  4160.483
 575  4412.022
 576  4638.066
 577  4837.634
 578  5169.092
 579  5513.674
 580  5682.014
 581  5862.116
 582  6006.008
 583  5788.901
 584  5524.487
 585  5120.077
 586  4862.247
 587  4644.413
 588  4413.561
 589  4175.912
 590  3888.733
 591  3963.636
 592  4062.995
 593  4283.716
 594  4458.739
 595  4784.046
 596  5093.414
 597  5305.818
 598  5401.584
 599  5348.637
 600  4998.991
 601  4689.762
 602  4594.736
 603  4461.19
 604  4467.445
 605  4506.687
 606  4788.083
 607  4885.985
 608  4810.805
 609  4967.894
 610  5124.959
 611  5335.07
 612  5653.026
 613  5860.733
 614  5892.477
 615  5559.688
 616  5366.7
 617  5227.383
 618  4982.145
 619  4810.799
 620  4598.584
 621  4548.948
 622  4488.909
 623  4474.613
 624  4367.789
 625  4270.709
 626  4191.89
 627  4407.395
 628  4535.151
 629  4738.685
 630  4916.573
 631  4923.52
 632  4825.87
 633  4474.254
 634  4425.583
 635  4280.019
 636  4140.383
 637  4206.517
 638  4299.041
 639  4528.983
 640  4383.506
 641  4270.279
 642  4450.11
 643  4608.719
 644  4966.81
 645  5232.862
 646  5335.542
 647  5532.593
 648  5463.092
 649  5647.404
 650  5398.606
 651  5066.312
 652  4954.339
 653  4665.025
 654  4826.845
 655  4722.404
 656  4790.259
 657  4619.949
 658  4416.738
 659  4473.082
 660  4539.755
 661  4926.109
 662  5221.569
 663  5247.232
 664  5110.429
 665  4801.188
 666  4604.184
 667  4468.325
 668  4113.317
 669  4048.748
 670  3963.916
 671  4058.912
 672  4117.692
 673  4174.371
 674  4285.297
 675  4368.968
 676  4626.785
 677  4983.432
 678  5183.873
 679  5449.912
 680  5561.046
 681  5607.852
 682  5328.715
 683  4994.038
 684  4840.965
 685  4563.181
 686  4725.692
 687  4660.392
 688  4585.433
 689  4496.827
 690  4505.008
 691  4634.947
 692  4516.205
 693  4615.404
 694  4745.718
 695  4995.381
 696  5118.596
 697  4942.046
 698  4732.22
 699  4513.889
 700  4296.597
 701  4058.639
 702  4009.257
 703  3961.179
 704  4242.876
 705  4238.987
 706  4226.186
 707  4123.085
 708  4253.523
 709  4580.709
 710  4985.044
 711  5458.856
 712  5735.759
 713  5740.489
 714  5657.577
 715  5417.355
 716  5196.61
 717  5168.625
 718  4997.188
 719  4788.404
 720  4329.725
 721  4373.79
 722  4280.894
 723  4291.568
 724  4236.551
 725  4288.36
 726  4337.086
 727  4490.816
 728  4714.104
 729  5110.06
 730  5123.271
 731  4983.649
 732  4896.884
 733  4631.195
 734  4479.633
 735  4183.991
 736  4131.459
 737  4293.192
 738  4141.751
 739  4228.938
 740  4176.746
 741  4447.397
 742  4735.305
 743  5001.402
 744  5269.031
 745  5619.472
 746  5947.138
 747  6098.844
 748  5621.338
 749  5334.898
 750  5024.791
 751  4901.747
 752  4828.754
 753  4546.139
 754  4481.426
 755  4326.077
 756  4464.524
 757  4571.67
 758  4589.321
 759  4602.37
 760  4769.223
 761  4992.622
 762  5112.058
 763  5020.117
 764  4911.859
 765  4610.375
 766  4338.961
 767  4169.017
 768  4024.835
 769  4120.24
 770  4200.791
 771  4157.734
 772  4174.208
 773  4300.064
 774  4616.731
 775  4954.932
 776  5083.627
 777  5469.36
 778  5684.972
 779  5803.113
 780  5663.614
 781  5407.498
 782  5337.659
 783  4951.498
 784  4877.338
 785  4589.302
 786  4449.396
 787  4528.55
 788  4514.833
 789  4458.258
 790  4270.17
 791  4241.38
 792  4325
 793  4342.32
 794  4574.911
 795  4869.748
 796  4827.775
 797  4881.234
 798  4512.595
 799  4327.416
 800  3881.807
 801  3770.779
 802  3965.309
 803  4035.119
 804  4101.206
 805  4149.538
 806  4137.822
 807  4150.167
 808  4365.328
 809  4767.176
 810  5196.807
 811  5388.886
 812  5530.074
 813  5359.531
 814  5296.606
 815  5249.161
 816  5117.527
 817  4945.864
 818  4504.518
 819  4416.843
 820  4334.76
 821  4327.838
 822  4303.201
 823  4279.771
 824  4263.803
 825  4234.835
 826  4267.984
 827  4554.371
 828  4606.408
 829  4764.167
 830  4681.423
 831  4442.987
 832  4334.265
 833  4101.507
 834  4145.151
 835  3981.77
 836  3966.281
 837  4078.107
 838  4166.448
 839  4271.118
 840  4269.372
 841  4419.021
 842  4696.979
 843  5050.341
 844  5486.354
 845  5640.719
 846  5557.178
 847  5500.986
 848  5313.377
 849  5074.515
 850  4661.359
 851  4506.242
 852  4590.835
 853  4265.521
 854  4145.748
 855  3918.968
 856  3923.524
 857  3871.012
 858  4145.292
 859  4521.596
 860  4674.104
 861  4776.835
 862  4906.839
 863  4779.517
 864  4570.339
 865  4333.381
 866  4176.276
 867  4153.924
 868  4009.617
 869  4130.393
 870  4108.325
 871  4188.433
 872  4176.585
 873  4188.167
 874  4350.116
 875  4726.864
 876  5048.984
 877  5256.089
 878  5265.733
 879  5370.805
 880  5324.66
 881  5141.067
 882  5068.784
 883  4817.808
 884  4591.4
 885  4395.399
 886  4384.75
 887  4445.865
 888  4493.837
 889  4561.971
 890  4371.425
 891  4277.437
 892  4438.186
 893  4725.84
 894  4973.644
 895  4901.62
 896  4815.54
 897  4741.505
 898  4501.635
 899  4260.947
 900  3981.588
 901  3780.728
 902  3817.287
 903  3920.382
 904  4148.446
 905  4158.609
 906  4167.186
 907  4603.609
 908  5088.289
 909  5425.501
 910  5519.131
 911  5537.404
 912  5642.756
 913  5419.425
 914  5150.575
 915  4901.948
 916  4541.588
 917  4500.971
 918  4244.646
 919  4329.576
 920  4328.568
 921  4221.263
 922  4341.363
 923  4271.095
 924  4301.698
 925  4264.511
 926  4434.545
 927  4813.473
 928  4807.277
 929  4740.064
 930  4478.38
 931  4214.309
 932  4075.907
 933  3627.426
 934  3555.169
 935  3723.258
 936  3889.656
 937  3961.786
 938  3917.781
 939  4043.726
 940  4252.287
 941  4517.08
 942  4928.745
 943  5188.578
 944  5257.118
 945  5426.746
 946  5202.586
 947  5050.449
 948  4653.97
 949  4483.305
 950  4514.976
 951  4151.824
 952  4279.784
 953  4226.375
 954  4347.123
 955  4148.584
 956  4095.413
 957  4191.957
 958  4242.796
 959  4480.563
 960  4658.658
 961  4448.808
 962  4417.325
 963  4276.384
 964  4152.339
 965  3868.134
 966  3550.679
 967  3802.214
 968  3890.533
 969  4153.83
 970  4133.138
 971  4179.826
 972  4245.038
 973  4348.462
 974  4619.058
 975  5048.538
 976  5306.472
 977  5537.894
 978  5524.369
 979  5221.496
 980  4862.57
 981  4484.313
 982  4594.533
 983  4482.872
 984  4449.882
 985  4384.943
 986  4197.876
 987  4400.415
 988  4180.253
 989  4170.042
 990  3942.14
 991  4118.328
 992  4399.221
 993  4540.861
 994  4682.427
 995  4770.552
 996  4630.681
 997  4417.828
 998  4014.969
 999  3898.849
1000  3977.278
1001  3901.646
1002  4090.696
1003  3966.492
1004  3966.86
1005  3816.099
1006  4137.017
1007  4611.559
1008  4952.228
1009  5221.411
1010  5418.199
1011  5457.46
1012  5584.251
1013  5475.378
1014  5368.195
1015  5023.889
1016  4739.355
1017  4688.64
1018  4501.513
1019  4365.608
1020  4151.758
1021  4192.578
1022  4058.805
1023  3897.657
