# Input file       =  1207659017.11272_cleaned.dat
# Candidate        =  PSR_0332+5434
# Telescope        =  AR
# Epoch_topo       =  58221.535140193519
# Epoch_bary       =  N/A
# T_sample         =  0.002
# Data Folded      =  7340032
# Data Avg         =  0.0681109203656752
# Data StdDev      =  1.0001312997719  
# Profile Bins     =  512
# Profile Avg      =  976.482046574539 
# Profile StdDev   =  119.748757297131 
# Reduced chi-sqr  =  0.884
# Prob(Noise)      <  0.972   (~0.0 sigma)
# P_topo (ms)      =  714.561435260203  +/- 0.000492
# P'_topo (s/s)    =  -0                +/- 2.6e-10
# P''_topo (s/s^2) =  0                 +/- 1.15e-13
# P_bary (ms)      =  N/A
# P'_bary (s/s)    =  N/A
# P''_bary (s/s^2) =  N/A
# P_orb (s)        =  N/A
# asin(i)/c (s)    =  N/A
# eccentricity     =  N/A
# w (rad)          =  N/A
# T_peri           =  N/A
######################################################
   0  938.0499
   1  850.6511
   2  945.6463
   3  989.5677
   4  940.5627
   5  930.6469
   6  897.1069
   7  954.2379
   8  914.937
   9  886.3008
  10  948.3716
  11  991.8923
  12  1004.673
  13  953.403
  14  916.4623
  15  893.0804
  16  948.342
  17  934.4878
  18  886.6826
  19  881.0193
  20  899.6823
  21  940.1555
  22  872.014
  23  968.673
  24  1045.69
  25  958.2117
  26  915.4135
  27  906.1934
  28  965.3799
  29  948.3266
  30  953.3827
  31  990.324
  32  1019.488
  33  956.9271
  34  948.8008
  35  1007.626
  36  1070.81
  37  1099.336
  38  1065.227
  39  981.7442
  40  916.5079
  41  918.6801
  42  986.7759
  43  945.8129
  44  996.0338
  45  993.7421
  46  996.7609
  47  1003.934
  48  993.4459
  49  1009.007
  50  912.2288
  51  956.782
  52  973.503
  53  981.3514
  54  991.2983
  55  967.2249
  56  1004.564
  57  974.8093
  58  972.1437
  59  995.8421
  60  996.847
  61  948.5159
  62  985.8438
  63  987.5132
  64  964.1445
  65  1029.949
  66  1042.027
  67  1018.343
  68  987.6672
  69  1037.856
  70  980.5956
  71  962.2185
  72  969.3542
  73  930.4923
  74  967.5649
  75  894.0072
  76  972.9572
  77  961.9636
  78  967.7014
  79  997.0211
  80  965.9635
  81  1000.487
  82  1005.89
  83  994.136
  84  951.1064
  85  943.644
  86  949.5333
  87  940.3318
  88  885.6063
  89  892.5651
  90  970.0281
  91  997.9851
  92  914.8408
  93  891.5477
  94  928.9575
  95  900.7981
  96  969.0414
  97  990.9984
  98  959.4675
  99  1037.57
 100  930.5035
 101  904.1265
 102  983.952
 103  982.9244
 104  1015.423
 105  1010.327
 106  1006.823
 107  1030.892
 108  967.8118
 109  973.2168
 110  950.3969
 111  939.7568
 112  965.2132
 113  979.8734
 114  1009.609
 115  967.0943
 116  832.8511
 117  795.8728
 118  938.7653
 119  960.1174
 120  905.1156
 121  903.571
 122  909.9883
 123  932.0806
 124  924.2605
 125  910.9475
 126  920.9994
 127  925.5195
 128  854.5179
 129  896.2253
 130  930.4874
 131  912.488
 132  914.0404
 133  837.0336
 134  818.8047
 135  880.4937
 136  887.9016
 137  872.5043
 138  938.079
 139  883.7618
 140  847.3195
 141  870.1498
 142  861.8275
 143  829.3398
 144  811.7198
 145  819.3833
 146  812.4371
 147  942.2528
 148  941.7194
 149  866.0765
 150  920.2474
 151  881.6213
 152  797.3378
 153  850.7828
 154  909.3439
 155  942.0947
 156  939.4633
 157  884.5859
 158  905.475
 159  887.0092
 160  879.2147
 161  870.1037
 162  856.9033
 163  910.2587
 164  961.9319
 165  982.3289
 166  920.1757
 167  901.8182
 168  953.9411
 169  956.355
 170  931.7202
 171  932.0453
 172  950.2863
 173  1009.757
 174  984.2731
 175  1040.716
 176  1039.972
 177  1053.071
 178  1019.762
 179  974.0134
 180  999.2964
 181  1053.495
 182  1024.56
 183  1057.565
 184  1077.016
 185  1022.76
 186  1008.276
 187  1011.636
 188  963.7126
 189  971.0368
 190  932.9793
 191  913.3859
 192  890.6393
 193  869.9896
 194  950.7
 195  969.3254
 196  964.6208
 197  1014.072
 198  985.9686
 199  985.9695
 200  1011.083
 201  942.2383
 202  864.288
 203  855.7184
 204  917.6033
 205  906.8866
 206  1004.452
 207  982.868
 208  898.0988
 209  885.2758
 210  922.3511
 211  932.0038
 212  992.7419
 213  1003.542
 214  960.7094
 215  913.6428
 216  954.6677
 217  947.508
 218  915.516
 219  923.5438
 220  993.682
 221  1017.678
 222  975.291
 223  1025.315
 224  1020.627
 225  969.1403
 226  941.8578
 227  928.9872
 228  945.4397
 229  990.2418
 230  1001.113
 231  956.9448
 232  980.0286
 233  995.5355
 234  1010.792
 235  971.2465
 236  969.2296
 237  920.1832
 238  912.6208
 239  978.6501
 240  972.3857
 241  927.9941
 242  1002.296
 243  1013.098
 244  982.8715
 245  995.9651
 246  993.4094
 247  1074.437
 248  1046.116
 249  1055.884
 250  1100.948
 251  1088.588
 252  1137.697
 253  1125.054
 254  1061.984
 255  1052.052
 256  1015.235
 257  1088.108
 258  1108.904
 259  1070.921
 260  1121.251
 261  1120.482
 262  1034.388
 263  1098.67
 264  1110.737
 265  1015.588
 266  1012.441
 267  1072.769
 268  1045.016
 269  1036.062
 270  971.0367
 271  1019.213
 272  981.4852
 273  918.8589
 274  931.7302
 275  1005.037
 276  921.095
 277  968.1165
 278  987.8945
 279  941.1246
 280  933.0638
 281  987.9806
 282  986.5894
 283  960.4771
 284  946.6482
 285  1011.925
 286  983.556
 287  929.6044
 288  999.5568
 289  988.9623
 290  1067.921
 291  991.0798
 292  994.8849
 293  1050.003
 294  1065.745
 295  1092.131
 296  1032.043
 297  1026.145
 298  1079.073
 299  1027.705
 300  932.732
 301  1007.951
 302  1000.786
 303  945.0913
 304  986.5154
 305  1073.784
 306  1085.765
 307  1088.326
 308  1087.809
 309  1040.248
 310  1019.251
 311  1026.658
 312  979.6636
 313  1032.704
 314  1055.25
 315  1041.208
 316  1007.299
 317  1032.974
 318  1035.245
 319  1003.62
 320  972.9604
 321  1034.39
 322  1018.42
 323  1033.291
 324  1070.487
 325  1022.418
 326  933.5745
 327  1085.816
 328  1123.278
 329  1095.969
 330  1196.919
 331  1193.156
 332  1098.42
 333  1054.162
 334  1039.876
 335  1081.128
 336  1094.332
 337  998.0842
 338  984.9558
 339  1044.873
 340  1063.469
 341  1021.679
 342  909.0764
 343  822.2629
 344  856.6713
 345  932.3256
 346  921.8859
 347  900.9175
 348  866.998
 349  848.6878
 350  777.9189
 351  944.949
 352  884.1697
 353  891.2535
 354  859.6552
 355  882.0708
 356  894.9054
 357  749.384
 358  748.5156
 359  830.3905
 360  837.3346
 361  916.8488
 362  880.8106
 363  882.6306
 364  959.0727
 365  905.948
 366  916.6822
 367  960.5411
 368  954.3466
 369  1155.205
 370  1306.38
 371  1516.246
 372  1437.217
 373  1295.407
 374  1216.561
 375  1061.81
 376  983.983
 377  954.2706
 378  900.3102
 379  909.4672
 380  899.6628
 381  875.2031
 382  854.1337
 383  935.0262
 384  948.1165
 385  1018.133
 386  985.7383
 387  995.3916
 388  1007.221
 389  906.5768
 390  937.0637
 391  987.1104
 392  978.827
 393  940.673
 394  982.8896
 395  1024.215
 396  1001.522
 397  1020.225
 398  974.3436
 399  987.9295
 400  936.1175
 401  946.7253
 402  1030.774
 403  992.2055
 404  917.4051
 405  954.0906
 406  971.2478
 407  992.0148
 408  927.1846
 409  997.9415
 410  963.0869
 411  935.0463
 412  920.4946
 413  972.5882
 414  997.5798
 415  945.0507
 416  930.657
 417  927.5487
 418  970.0878
 419  954.6522
 420  940.2629
 421  934.7635
 422  904.6279
 423  925.6321
 424  918.9557
 425  897.7699
 426  875.9639
 427  884.6475
 428  911.1927
 429  878.4313
 430  898.9843
 431  852.533
 432  910.616
 433  912.4508
 434  897.6409
 435  911.6013
 436  892.5658
 437  922.4584
 438  991.5073
 439  921.1805
 440  946.394
 441  1065.062
 442  1034.629
 443  1001.924
 444  993.5958
 445  900.03
 446  916.2924
 447  954.0156
 448  1017.632
 449  991.3192
 450  971.0092
 451  991.2074
 452  1010.809
 453  948.194
 454  918.629
 455  1006.979
 456  908.0827
 457  982.1369
 458  961.9302
 459  980.6743
 460  1046.17
 461  1020.025
 462  1048.107
 463  950.9692
 464  1030.462
 465  1082.819
 466  998.1336
 467  1018.023
 468  1099.305
 469  1098.242
 470  1030.951
 471  1125.882
 472  1125.539
 473  1062.647
 474  1035.868
 475  1046.681
 476  1114.294
 477  1101.514
 478  1120.398
 479  1215.41
 480  1199.072
 481  1061.958
 482  1135.228
 483  1127.706
 484  1074.81
 485  1106.411
 486  1106.817
 487  1011.422
 488  1065.738
 489  1071.82
 490  1072.229
 491  1080.104
 492  1053.016
 493  1006.863
 494  1021.344
 495  1015.215
 496  1067.369
 497  1024.868
 498  1115.662
 499  1067.906
 500  955.6995
 501  910.8038
 502  855.339
 503  933.2646
 504  1008.486
 505  973.5169
 506  899.4666
 507  880.6503
 508  1002.091
 509  1000.981
 510  997.5518
 511  994.8364
