# Input file       =  1208067354.11976_cleaned.dat
# Candidate        =  PSR_0332+5434
# Telescope        =  AR
# Epoch_topo       =  58226.261262960186
# Epoch_bary       =  N/A
# T_sample         =  0.002
# Data Folded      =  7208960
# Data Avg         =  0.23324093289504 
# Data StdDev      =  5.10263884075309 
# Profile Bins     =  1024
# Profile Avg      =  1642.03905972442 
# Profile StdDev   =  428.135421215882 
# Reduced chi-sqr  =  1.028
# Prob(Noise)      <  0.263   (~0.6 sigma)
# P_topo (ms)      =  714.557592107448  +/- 4.94e-05
# P'_topo (s/s)    =  -0                +/- 2.65e-11
# P''_topo (s/s^2) =  0                 +/- 1.19e-14
# P_bary (ms)      =  N/A
# P'_bary (s/s)    =  N/A
# P''_bary (s/s^2) =  N/A
# P_orb (s)        =  N/A
# asin(i)/c (s)    =  N/A
# eccentricity     =  N/A
# w (rad)          =  N/A
# T_peri           =  N/A
######################################################
   0  1736.387
   1  1676.691
   2  1810.452
   3  1769.17
   4  1737.382
   5  1919.455
   6  1915.112
   7  1787.852
   8  1684.958
   9  1774.447
  10  1884.146
  11  1911.152
  12  1936.049
  13  1838.062
  14  1654.048
  15  1574.508
  16  1497.717
  17  1528.98
  18  1641.289
  19  1821.528
  20  1856.279
  21  1916.311
  22  1922.439
  23  2025.444
  24  1904.377
  25  1917.232
  26  1973.689
  27  2214.519
  28  2317.754
  29  2193.878
  30  2126.665
  31  1971.454
  32  1807.525
  33  1661.087
  34  1831.966
  35  1768.724
  36  1628.601
  37  1505.086
  38  1706.816
  39  1688.479
  40  1701.097
  41  1744.201
  42  1739.403
  43  1665.134
  44  1673.886
  45  1662.286
  46  1511.683
  47  1461.513
  48  1515.506
  49  1615.446
  50  1601.151
  51  1588.855
  52  1555.241
  53  1502.462
  54  1566.359
  55  1501.928
  56  1653.621
  57  1886.905
  58  1990.811
  59  2008.931
  60  1934.461
  61  1922.854
  62  1676.639
  63  1694.289
  64  1705.762
  65  1612.218
  66  1410.683
  67  1454.096
  68  1337.049
  69  1185.74
  70  1274.535
  71  1508.907
  72  1472.513
  73  1389.704
  74  1459.133
  75  1496.382
  76  1341.024
  77  1359.14
  78  1519.063
  79  1547.577
  80  1525.485
  81  1464.018
  82  1449.895
  83  1389.608
  84  1505.703
  85  1480.362
  86  1390.484
  87  1296.589
  88  1356.145
  89  1540.353
  90  1640.617
  91  1618.208
  92  1611.199
  93  1624.473
  94  1611.233
  95  1674.471
  96  1726.571
  97  1738.893
  98  1691.938
  99  1883.976
 100  1840.871
 101  1627.475
 102  1491.936
 103  1583.401
 104  1414.12
 105  1122.269
 106  1146.43
 107  1453.594
 108  1613.781
 109  1657.995
 110  1665.437
 111  1664.857
 112  1508.267
 113  1389.772
 114  1330.375
 115  1423.906
 116  1448.617
 117  1461.655
 118  1306.71
 119  1206.645
 120  1286.587
 121  1493.993
 122  1624.019
 123  1607.552
 124  1700.156
 125  1862.199
 126  1836.155
 127  1752.416
 128  1648.037
 129  1563.443
 130  1458.982
 131  1431.59
 132  1463.847
 133  1315.108
 134  1227.799
 135  1355.145
 136  1527.172
 137  1511.85
 138  1517.114
 139  1593.489
 140  1706.368
 141  1715.653
 142  1669.219
 143  1501.003
 144  1415.215
 145  1456.355
 146  1433.833
 147  1275.091
 148  1327.854
 149  1486.356
 150  1751.474
 151  1813.462
 152  1761.718
 153  1617.514
 154  1511.518
 155  1500.108
 156  1687.753
 157  1941.379
 158  1882.604
 159  1748.885
 160  1608.983
 161  1611.682
 162  1445.335
 163  1461.033
 164  1577.878
 165  1679.538
 166  1560.648
 167  1701.38
 168  1730.055
 169  1703.523
 170  1513.2
 171  1688.208
 172  1805.53
 173  1810.758
 174  1725.517
 175  1647.704
 176  1549.508
 177  1483.053
 178  1454.113
 179  1379.65
 180  1398.778
 181  1530.141
 182  1725.095
 183  1658.042
 184  1487.785
 185  1341.161
 186  1406.626
 187  1525.801
 188  1616.973
 189  1746.242
 190  1965.675
 191  2046.892
 192  2118.288
 193  2141.105
 194  2024.833
 195  1790.282
 196  1699.235
 197  1711.28
 198  1628.036
 199  1475.881
 200  1604.339
 201  1644.582
 202  1552.031
 203  1588.017
 204  1680.434
 205  1807.048
 206  1746.649
 207  1759.014
 208  1849.769
 209  1934.441
 210  1962.057
 211  1606.292
 212  1329.355
 213  1251.04
 214  1339.342
 215  1217.054
 216  1126.069
 217  1337.473
 218  1438.369
 219  1598.702
 220  1689.889
 221  1917.784
 222  2055.427
 223  2071.389
 224  2192.994
 225  2327.902
 226  2269.52
 227  2015.106
 228  1649.523
 229  1617.978
 230  1506.907
 231  1404.898
 232  1494.166
 233  1656.811
 234  1585.847
 235  1287.821
 236  1232.64
 237  1247.884
 238  1321.48
 239  1530.265
 240  1678.436
 241  1679.863
 242  1717.601
 243  1826.376
 244  1794.755
 245  1670.732
 246  1593.577
 247  1672.02
 248  1667.984
 249  1529.734
 250  1407.722
 251  1232.223
 252  1216.551
 253  1129.076
 254  1232.062
 255  1528.048
 256  1702.742
 257  1841.415
 258  1873.685
 259  1901.729
 260  1816.084
 261  1861.368
 262  1911.557
 263  1922.012
 264  1813.512
 265  1863.816
 266  1688.184
 267  1236.196
 268  1020.604
 269  1162.839
 270  1237.459
 271  1120.221
 272  1238.278
 273  1549.925
 274  1686.319
 275  1669.328
 276  1644.763
 277  1532.383
 278  1334.879
 279  1176.887
 280  1136.957
 281  1166.587
 282  1258.973
 283  1484.051
 284  1540.042
 285  1489.153
 286  1368.049
 287  1555.341
 288  1515.109
 289  1556.815
 290  1607.323
 291  1587.574
 292  1465.577
 293  1307.442
 294  1358.812
 295  1243.313
 296  1110.502
 297  1364.578
 298  1592.588
 299  1585.868
 300  1488.943
 301  1548.346
 302  1660.073
 303  1480.08
 304  1441.399
 305  1433.721
 306  1565.245
 307  1687.798
 308  1674.672
 309  1399.027
 310  1109.689
 311  1008.086
 312  1166.446
 313  1112.659
 314  1072.121
 315  1095.755
 316  1238.291
 317  1344.824
 318  1324.011
 319  1435.638
 320  1604.069
 321  1773.859
 322  1849.522
 323  1935.377
 324  1804.542
 325  1725.603
 326  1618.496
 327  1567.012
 328  1468.755
 329  1502.17
 330  1570.884
 331  1474.074
 332  1403.876
 333  1518.307
 334  1616.177
 335  1471.276
 336  1430.382
 337  1446.661
 338  1449.916
 339  1381.188
 340  1401.412
 341  1475.146
 342  1429.083
 343  1396.134
 344  1244.494
 345  1098.68
 346  985.0334
 347  1131.305
 348  1342.812
 349  1437.653
 350  1388.577
 351  1246.948
 352  1374.848
 353  1465.859
 354  1708.745
 355  1863.072
 356  2015.813
 357  1934.614
 358  1875.855
 359  1875.611
 360  1717.283
 361  1423.348
 362  1409.114
 363  1335.866
 364  1160.128
 365  1064.41
 366  1345.299
 367  1513.148
 368  1424.543
 369  1404.222
 370  1525.196
 371  1596.737
 372  1563.39
 373  1620.341
 374  1580.126
 375  1576.292
 376  1374.629
 377  1396.953
 378  1200.359
 379  1175.905
 380  1261.309
 381  1296.11
 382  1312.534
 383  1385.076
 384  1526.686
 385  1562.354
 386  1592.227
 387  1791.219
 388  2144.328
 389  2229.084
 390  2051.734
 391  1891.065
 392  1860.028
 393  1798.849
 394  1691.994
 395  1798.873
 396  1675.686
 397  1551.111
 398  1424.001
 399  1450.292
 400  1156.485
 401  976.3995
 402  1106.385
 403  1314.454
 404  1389.303
 405  1523.584
 406  1697.552
 407  1751.328
 408  1747.291
 409  1736.639
 410  1719.199
 411  1577.962
 412  1632.291
 413  1683.937
 414  1684.502
 415  1414.002
 416  1348.029
 417  1375.623
 418  1472.937
 419  1341.099
 420  1514.025
 421  1652.805
 422  1781.536
 423  1715.409
 424  1773.014
 425  1775.649
 426  1670.657
 427  1757.173
 428  1771.019
 429  1647.84
 430  1569.478
 431  1605.257
 432  1476.883
 433  1264.458
 434  1309.031
 435  1582.911
 436  1524.86
 437  1576.088
 438  1673.215
 439  1793.799
 440  1671.17
 441  1645.917
 442  1626.776
 443  1468.153
 444  1279.588
 445  1354.434
 446  1448.627
 447  1514.743
 448  1545.623
 449  1520.849
 450  1501.495
 451  1430.919
 452  1648.502
 453  1920.571
 454  2010.895
 455  2083.712
 456  2055.399
 457  1902.306
 458  1619.616
 459  1546.205
 460  1724.101
 461  1607.088
 462  1569.045
 463  1642.258
 464  1724.735
 465  1633.103
 466  1566.725
 467  1646.168
 468  1487.911
 469  1321.191
 470  1331.534
 471  1568.784
 472  1684.431
 473  1732.791
 474  1679.65
 475  1700.198
 476  1552.031
 477  1431.026
 478  1424.189
 479  1443.339
 480  1484.891
 481  1426.454
 482  1448.396
 483  1537.345
 484  1597.496
 485  1836.82
 486  1930.639
 487  1977.951
 488  1910.45
 489  1870.948
 490  1829.603
 491  1686.511
 492  1680.975
 493  1702.111
 494  1562.682
 495  1528.879
 496  1540.215
 497  1619.299
 498  1585.646
 499  1615.761
 500  1608.315
 501  1468.45
 502  1468.694
 503  1547.378
 504  1743.626
 505  1913.956
 506  1857.783
 507  1465.847
 508  1379.039
 509  1367.85
 510  1646.249
 511  1525.495
 512  1608.6
 513  1578.9
 514  1467.294
 515  1353.971
 516  1270.94
 517  1441.671
 518  1720.243
 519  1838.878
 520  2043.299
 521  2142.992
 522  2197.958
 523  2161.131
 524  2010.382
 525  1885.782
 526  1663.567
 527  1648.996
 528  1759.688
 529  1733.323
 530  1592.159
 531  1557.268
 532  1761.127
 533  1761.653
 534  1559.964
 535  1698.522
 536  1864.289
 537  1853.02
 538  1820.583
 539  1704.136
 540  1731.322
 541  1679.901
 542  1543.693
 543  1377.151
 544  1307.36
 545  1543.648
 546  1496.365
 547  1566.419
 548  1596.501
 549  1581.597
 550  1638.927
 551  1723.579
 552  1761.111
 553  1793.664
 554  1860.659
 555  2001.534
 556  1875.015
 557  1742.708
 558  1689.591
 559  1655.783
 560  1770.636
 561  1896.451
 562  1811.861
 563  1630.27
 564  1603.812
 565  1655.855
 566  1505.677
 567  1446.554
 568  1575.828
 569  1730.829
 570  1710.141
 571  1703.713
 572  1744.744
 573  1623.836
 574  1486.519
 575  1471.826
 576  1539.994
 577  1491.544
 578  1397.278
 579  1421.819
 580  1535.807
 581  1701.609
 582  1741.999
 583  1792.902
 584  1721.232
 585  1848.314
 586  2003.617
 587  2140.941
 588  2040.199
 589  1915.803
 590  1837.435
 591  1718.595
 592  1611.28
 593  1926.823
 594  2124.008
 595  2093.328
 596  1943.035
 597  2021.367
 598  2150.426
 599  2090.482
 600  2297.492
 601  2464.573
 602  2573.796
 603  2696.457
 604  2786.424
 605  2798.436
 606  2534.693
 607  2252.712
 608  2003.032
 609  1676.865
 610  1471.825
 611  1412.354
 612  1408.734
 613  1309.724
 614  1340.272
 615  1423.724
 616  1514.289
 617  1444.933
 618  1653.594
 619  1838.797
 620  1992.92
 621  1960.524
 622  1982.556
 623  1870
 624  1671.631
 625  1749.178
 626  1825.342
 627  1656.907
 628  1574.872
 629  1669.19
 630  1744.004
 631  1479.021
 632  1228.329
 633  1334.151
 634  1543.149
 635  1760.318
 636  1834.992
 637  1973.272
 638  2058.106
 639  1986.624
 640  1849.136
 641  1587.397
 642  1410.884
 643  1496.306
 644  1456.752
 645  1405.931
 646  1322.847
 647  1473.793
 648  1703.991
 649  1724.751
 650  1825.88
 651  1941.769
 652  2144.927
 653  2219.036
 654  2113.34
 655  1937.982
 656  1624.338
 657  1530.531
 658  1579.144
 659  1524.747
 660  1385.789
 661  1476.245
 662  1696.08
 663  1769.929
 664  1639.568
 665  1798.589
 666  1912.747
 667  1945.768
 668  1949.881
 669  1951.005
 670  1992.845
 671  1895.909
 672  1760.264
 673  1637.573
 674  1445.597
 675  1469.099
 676  1512.355
 677  1560.868
 678  1518.87
 679  1424.031
 680  1491.941
 681  1662.896
 682  1753.502
 683  1809.856
 684  1799.552
 685  1773.215
 686  1731.773
 687  1819.872
 688  2046.493
 689  2035.364
 690  2073.136
 691  2018.118
 692  1941.811
 693  2037.428
 694  1970.356
 695  1826.576
 696  1590.866
 697  1603.234
 698  1666.67
 699  1714.344
 700  1564.627
 701  1598.05
 702  1647.886
 703  1837.48
 704  1934.941
 705  1846.078
 706  1702.368
 707  1511.403
 708  1559.104
 709  1523.137
 710  1543.038
 711  1685.021
 712  1748.123
 713  1706.263
 714  1554.898
 715  1486.243
 716  1610.69
 717  1762.651
 718  1943.991
 719  1976.464
 720  2023.536
 721  1968.21
 722  1785.826
 723  1806.624
 724  1742.199
 725  1683.605
 726  1647.287
 727  1654.263
 728  1491.309
 729  1229.085
 730  1256.111
 731  1340.192
 732  1347.083
 733  1511.811
 734  1615.837
 735  1680.921
 736  1713
 737  1783.108
 738  1744.433
 739  1483.19
 740  1426.451
 741  1621.12
 742  1595.592
 743  1480.758
 744  1484.521
 745  1565.964
 746  1588.155
 747  1386.593
 748  1469.857
 749  1633.371
 750  1625.996
 751  1617.771
 752  1747.564
 753  1988.698
 754  1744.871
 755  1580.696
 756  1620.544
 757  1640.878
 758  1672.693
 759  1734.233
 760  1791.252
 761  1720.208
 762  1670.449
 763  1691.637
 764  1473.082
 765  1294.899
 766  1289.589
 767  1456.362
 768  1490.266
 769  1549.405
 770  1610.282
 771  1594.841
 772  1459.873
 773  1400.417
 774  1340.442
 775  1269.956
 776  1390.281
 777  1567.885
 778  1641.563
 779  1493.93
 780  1513.829
 781  1628.277
 782  1616.312
 783  1573.979
 784  1647.94
 785  1844.572
 786  1871.272
 787  1738.471
 788  1692.825
 789  1624.157
 790  1607.505
 791  1653.901
 792  1760.355
 793  1737.481
 794  1571.055
 795  1655.147
 796  1618.082
 797  1347.057
 798  1282.696
 799  1548.52
 800  1771.459
 801  1790.88
 802  1620.401
 803  1628.351
 804  1547.316
 805  1591.284
 806  1673.818
 807  1751.672
 808  1718.278
 809  1691.162
 810  1737.468
 811  1702.981
 812  1584.706
 813  1622.395
 814  1869.999
 815  1958.954
 816  2040.84
 817  2083.554
 818  2088.302
 819  2051.74
 820  1842.693
 821  1761.877
 822  1559.311
 823  1715.141
 824  1770.257
 825  1773.745
 826  1697.041
 827  1730.175
 828  1808.891
 829  1736.127
 830  1666.454
 831  1686.685
 832  1637.639
 833  1617.526
 834  1785.671
 835  1778.785
 836  1790.505
 837  1800.697
 838  1802.373
 839  1716.576
 840  1492.93
 841  1587.783
 842  1560.989
 843  1651.993
 844  1696.197
 845  1712.139
 846  1751.891
 847  1779.488
 848  1781.898
 849  1936.202
 850  2039.066
 851  2158.845
 852  2090.081
 853  2129.856
 854  1996.636
 855  1947.494
 856  1843.482
 857  1687.211
 858  1551.369
 859  1485.709
 860  1585.467
 861  1570.276
 862  1529.58
 863  1732.542
 864  1836.94
 865  1879.611
 866  1818.676
 867  1834.655
 868  1869.038
 869  2067.35
 870  2021.019
 871  1903.66
 872  1603.551
 873  1551.215
 874  1571.372
 875  1470.137
 876  1554.469
 877  1633.638
 878  1616.32
 879  1507.137
 880  1583.488
 881  1738.16
 882  1907.232
 883  1958.451
 884  2087.672
 885  2081.598
 886  2005.338
 887  1770.483
 888  1695.474
 889  1790.88
 890  1703.572
 891  1524.523
 892  1426.097
 893  1424.269
 894  1311.38
 895  1287.489
 896  1435.586
 897  1513.236
 898  1484.155
 899  1635.25
 900  1725.019
 901  1664.352
 902  1644.552
 903  1608.929
 904  1574.469
 905  1465.952
 906  1504.418
 907  1483.005
 908  1394.384
 909  1277.974
 910  1288.684
 911  1327.688
 912  1528.51
 913  1498.923
 914  1543.125
 915  1583.234
 916  1614.058
 917  1583.236
 918  1682.919
 919  1866.838
 920  1844.156
 921  1904.55
 922  1927.463
 923  1871.906
 924  1707.531
 925  1746.462
 926  1798.648
 927  1553.75
 928  1470.879
 929  1500.856
 930  1389.152
 931  1228.417
 932  1309.381
 933  1613.405
 934  1683.257
 935  1483.345
 936  1449.902
 937  1227.366
 938  1370.917
 939  1441.819
 940  1568.082
 941  1398.168
 942  1293.529
 943  1447.062
 944  1512.18
 945  1367.194
 946  1352.822
 947  1536.359
 948  1677.092
 949  1684.614
 950  1641.689
 951  1782.51
 952  1681.67
 953  1718.045
 954  1761.316
 955  1748.18
 956  1722.807
 957  1755.781
 958  1741.968
 959  1544.829
 960  1397.061
 961  1598.77
 962  1728.643
 963  1559.649
 964  1422.358
 965  1330.562
 966  1325.563
 967  1358.995
 968  1602.539
 969  1778.596
 970  1619.037
 971  1512.713
 972  1405.292
 973  1477.724
 974  1699.445
 975  1945.033
 976  2004.355
 977  1909.223
 978  1836.599
 979  1837.742
 980  1619.896
 981  1569.904
 982  1706.312
 983  1945.152
 984  1941.194
 985  1801.388
 986  1834.292
 987  1703.292
 988  1731.359
 989  1790.242
 990  1930.253
 991  1813.939
 992  1714.169
 993  1826.773
 994  1800.657
 995  1647.9
 996  1528.192
 997  1570.846
 998  1534.276
 999  1566.693
1000  1582.652
1001  1684.115
1002  1675.643
1003  1653.107
1004  1673.478
1005  1520.432
1006  1548.256
1007  1632.878
1008  1741.27
1009  1718.436
1010  1711.778
1011  1801.914
1012  1886.256
1013  1886.502
1014  1885.011
1015  2068.139
1016  2247.077
1017  2277.545
1018  2262.026
1019  2115.222
1020  1875.393
1021  1811.046
1022  2002.969
1023  1948.117
