# Input file       =  1208168225.105342_cleaned.dat
# Candidate        =  PSR_0332+5434
# Telescope        =  AR
# Epoch_topo       =  58227.428751219239
# Epoch_bary       =  N/A
# T_sample         =  0.002
# Data Folded      =  7340032
# Data Avg         =  0.237113771445625
# Data StdDev      =  5.69467471284432 
# Profile Bins     =  1024
# Profile Avg      =  1698.28280713169 
# Profile StdDev   =  482.134178803015 
# Reduced chi-sqr  =  1.326
# Prob(Noise)      <  9.91e-12   (~6.7 sigma)
# P_topo (ms)      =  714.556669360009  +/- 0.000495
# P'_topo (s/s)    =  -0                +/- 2.61e-10
# P''_topo (s/s^2) =  0                 +/- 1.15e-13
# P_bary (ms)      =  N/A
# P'_bary (s/s)    =  N/A
# P''_bary (s/s^2) =  N/A
# P_orb (s)        =  N/A
# asin(i)/c (s)    =  N/A
# eccentricity     =  N/A
# w (rad)          =  N/A
# T_peri           =  N/A
######################################################
   0  1654.476
   1  1704.922
   2  1672.498
   3  1516.464
   4  1460.351
   5  1529.899
   6  1700.802
   7  1800.518
   8  1758.662
   9  1689.126
  10  1465.035
  11  1364.443
  12  1376.374
  13  1508.045
  14  1604.636
  15  1665.329
  16  1627.189
  17  1508.887
  18  1493.256
  19  1437.513
  20  1418.965
  21  1351.42
  22  1298.821
  23  1315.073
  24  1270.244
  25  1322.254
  26  1383.002
  27  1521.894
  28  1634.724
  29  1640.789
  30  1693.241
  31  1626.173
  32  1621.172
  33  1506.595
  34  1436.331
  35  1491.623
  36  1557.385
  37  1457.13
  38  1360.893
  39  1456.778
  40  1441.719
  41  1459.393
  42  1439.388
  43  1534.464
  44  1599.808
  45  1624.073
  46  1565.935
  47  1412.596
  48  1483.075
  49  1531.988
  50  1782.911
  51  1627.788
  52  1628.126
  53  1564.079
  54  1768.428
  55  1892.782
  56  1836.809
  57  1697.972
  58  1706.291
  59  1810.553
  60  1800.143
  61  1875.178
  62  2055.164
  63  2182.883
  64  2049.344
  65  1897.729
  66  1803.737
  67  1861.161
  68  1988.281
  69  2025.425
  70  2003.757
  71  2009.335
  72  2199.482
  73  2225.553
  74  2117.431
  75  1968.143
  76  1849.356
  77  1786.858
  78  1869.273
  79  1901.227
  80  1923.722
  81  1968.71
  82  2015.768
  83  2052.336
  84  2058.259
  85  2055.417
  86  2053.965
  87  2027.639
  88  1970.998
  89  1860.427
  90  2014.665
  91  2006.69
  92  1980.665
  93  1890.414
  94  1943.464
  95  2037.323
  96  2099.073
  97  2036.528
  98  2098.029
  99  2072.089
 100  2109.119
 101  2001.512
 102  2104.477
 103  2084.465
 104  2040.104
 105  1901.393
 106  1820.785
 107  1935.027
 108  1992.23
 109  2101.408
 110  2017.377
 111  1937.634
 112  1924.188
 113  2047.066
 114  2124.273
 115  2128.163
 116  1951.527
 117  1958.768
 118  1880.481
 119  1840.39
 120  1819.078
 121  1806.553
 122  1897.067
 123  1923.706
 124  1871.456
 125  1883.715
 126  1985.076
 127  2062.25
 128  2041.333
 129  1913.624
 130  1851.841
 131  1854.671
 132  1794.321
 133  1768.89
 134  1779.427
 135  1929.38
 136  1925.137
 137  1964.447
 138  1768.685
 139  1707.519
 140  1610.341
 141  1689.186
 142  1764.464
 143  2079.306
 144  2151.465
 145  2044.349
 146  1815.188
 147  1671.163
 148  1483.662
 149  1365.483
 150  1479.204
 151  1722.902
 152  1698.741
 153  1635.046
 154  1572.107
 155  1642.773
 156  1568.629
 157  1690.398
 158  1801.374
 159  1932.948
 160  1918.64
 161  1857.21
 162  1820.859
 163  1773.915
 164  1633.209
 165  1704.815
 166  1697.29
 167  1714.205
 168  1660.772
 169  1677.631
 170  1735.489
 171  1690.196
 172  1669.618
 173  1657.636
 174  1814.136
 175  1847.546
 176  1856.657
 177  1883.594
 178  1803.497
 179  1653.327
 180  1510.787
 181  1411.067
 182  1418.662
 183  1602.616
 184  1691.068
 185  1688.14
 186  1569.033
 187  1654.611
 188  1613.469
 189  1740.171
 190  1679.129
 191  1763.704
 192  1703.834
 193  1846.449
 194  1801.888
 195  1791.926
 196  1699.543
 197  1631.138
 198  1620.612
 199  1578.83
 200  1643.747
 201  1773.741
 202  1933.042
 203  1989.887
 204  1920.244
 205  1835.863
 206  1827.314
 207  1900.451
 208  1968.279
 209  1879.031
 210  1699.061
 211  1644.335
 212  1621.833
 213  1719.461
 214  1801.545
 215  1907.015
 216  1994.324
 217  1921.927
 218  1874.073
 219  1834.266
 220  1933.155
 221  2037.308
 222  2037.941
 223  1982.853
 224  1998.102
 225  1921.684
 226  1869.543
 227  1885.634
 228  2040
 229  2015.06
 230  1942.095
 231  1929.778
 232  1958.653
 233  2109.098
 234  2055.362
 235  2011.229
 236  1952.05
 237  2034.027
 238  2164.981
 239  2194.993
 240  2112.368
 241  2000.983
 242  1899.771
 243  1855.524
 244  1879.319
 245  1845.115
 246  1904.178
 247  1903.897
 248  1929.59
 249  1909.085
 250  1907.227
 251  1977.895
 252  1932.856
 253  1944.323
 254  1832.9
 255  1928.521
 256  1938.101
 257  1949.577
 258  1709.727
 259  1699.111
 260  1680.347
 261  1771.078
 262  1690.119
 263  1774.285
 264  1737.92
 265  1745.748
 266  1648.007
 267  1730.067
 268  1818.333
 269  1960.369
 270  2027.842
 271  1978.45
 272  1824.233
 273  1594.295
 274  1546.015
 275  1649.984
 276  1708.919
 277  1778.109
 278  1725.842
 279  1628.687
 280  1572.605
 281  1682.828
 282  1801.494
 283  1696.191
 284  1678.625
 285  1654.129
 286  1743.266
 287  1823.097
 288  1755.762
 289  1657.158
 290  1596.152
 291  1680.838
 292  1763.16
 293  1815.164
 294  1821.518
 295  1727.177
 296  1604.089
 297  1410.28
 298  1407.512
 299  1287.279
 300  1225.869
 301  1378.588
 302  1470.885
 303  1642.275
 304  1650.746
 305  1649.348
 306  1592.986
 307  1516.932
 308  1552.928
 309  1575.558
 310  1517.004
 311  1544.643
 312  1423.795
 313  1487.177
 314  1434.941
 315  1500.625
 316  1541.102
 317  1480.886
 318  1305.57
 319  1224.046
 320  1378.067
 321  1437.436
 322  1443.362
 323  1270.601
 324  1110.582
 325  1112.869
 326  1264.908
 327  1330.153
 328  1367.627
 329  1285.374
 330  1205.867
 331  1007.42
 332  842.1066
 333  866.9651
 334  967.9409
 335  1019.328
 336  912.1548
 337  905.0723
 338  957.4979
 339  970.4815
 340  1032.18
 341  1099.398
 342  1080.168
 343  851.1561
 344  756.7722
 345  810.7679
 346  861.9697
 347  996.8156
 348  1071.071
 349  1089.821
 350  1133.82
 351  1065.68
 352  1068.235
 353  1002.661
 354  986.6189
 355  1054.357
 356  1156.289
 357  1254.9
 358  1249.323
 359  1281.9
 360  1341.186
 361  1341.104
 362  1395.459
 363  1411.217
 364  1410.797
 365  1352.17
 366  1388.862
 367  1370.407
 368  1355.028
 369  1379.826
 370  1530.571
 371  1641.183
 372  1601.769
 373  1586.142
 374  1645.101
 375  1721.54
 376  1620.314
 377  1601.998
 378  1603.595
 379  1644.07
 380  1531.828
 381  1393.074
 382  1400.74
 383  1466.233
 384  1400.949
 385  1379.964
 386  1368.469
 387  1535.013
 388  1703.958
 389  1793.397
 390  1876.108
 391  1872.128
 392  1867.562
 393  1868.22
 394  1942.142
 395  1949.958
 396  1857.465
 397  1868.167
 398  1920.065
 399  1973.833
 400  1920.498
 401  1870.115
 402  1994.347
 403  2137.863
 404  2218.43
 405  2063.945
 406  1842.005
 407  1738.547
 408  1720.018
 409  1663.46
 410  1575.895
 411  1685.278
 412  1750.148
 413  1778.364
 414  1717.662
 415  1714.247
 416  1732.644
 417  1682.064
 418  1771.452
 419  1906.809
 420  1870.564
 421  1703.554
 422  1641.143
 423  1634.171
 424  1752.434
 425  1751.031
 426  1824.076
 427  1794.772
 428  1730.585
 429  1723.098
 430  1794.948
 431  1791.23
 432  1656.57
 433  1561.406
 434  1483.239
 435  1483.411
 436  1482.802
 437  1444.16
 438  1442.964
 439  1536.627
 440  1443.804
 441  1405.707
 442  1370.951
 443  1311.403
 444  1277.003
 445  1328.082
 446  1337.288
 447  1393.506
 448  1379.251
 449  1426.769
 450  1300.998
 451  1224.959
 452  1207.399
 453  1304.054
 454  1317.124
 455  1333.999
 456  1288.452
 457  1288.112
 458  1266.263
 459  1296.886
 460  1297.335
 461  1249.584
 462  1251.377
 463  1290.204
 464  1249.746
 465  1286.008
 466  1398.718
 467  1394.749
 468  1276.189
 469  1265.693
 470  1309.143
 471  1339.991
 472  1296.331
 473  1309.996
 474  1362.734
 475  1324.875
 476  1292.374
 477  1200.447
 478  1183.425
 479  1242.302
 480  1308.871
 481  1174.267
 482  1100.607
 483  1134.913
 484  1089.312
 485  1021.991
 486  958.7224
 487  1051.812
 488  1109.498
 489  1352.581
 490  1620.262
 491  1615.272
 492  1560.299
 493  1454.574
 494  1435.43
 495  1341.005
 496  1375.526
 497  1491.051
 498  1452.301
 499  1387.054
 500  1242.763
 501  1426.361
 502  1419.857
 503  1501.082
 504  1471.998
 505  1456.7
 506  1509.997
 507  1478.472
 508  1522.929
 509  1512.361
 510  1578.862
 511  1528.718
 512  1559.181
 513  1636.411
 514  1735.033
 515  1820.008
 516  1692.283
 517  1663.837
 518  1670.851
 519  1709.501
 520  1707.029
 521  1692.062
 522  1747.433
 523  1734.419
 524  1592.5
 525  1534.51
 526  1645.59
 527  1730.586
 528  1741.894
 529  1754.413
 530  1718.767
 531  1696.697
 532  1697.275
 533  1661.813
 534  1609.118
 535  1597.683
 536  1674.704
 537  1698.947
 538  1722.507
 539  1800.016
 540  1830.08
 541  1851.47
 542  1805.812
 543  1757.172
 544  1679.837
 545  1691.939
 546  1716.399
 547  1645.115
 548  1634.161
 549  1737.037
 550  1894.226
 551  1983.244
 552  1922.62
 553  1894.787
 554  1972.069
 555  1992.967
 556  1967.779
 557  1929.308
 558  1921.34
 559  1874.74
 560  1941.773
 561  1925.547
 562  2056.345
 563  2093.367
 564  2192.165
 565  2144.688
 566  2162.8
 567  2215.257
 568  2304.491
 569  2259.374
 570  2273.529
 571  2263.344
 572  2314.441
 573  2301.029
 574  2345.124
 575  2308.082
 576  2240.737
 577  2190.083
 578  2211.365
 579  2276.397
 580  2291.518
 581  2205.572
 582  2170.448
 583  2168.827
 584  2244.98
 585  2218.056
 586  2048.571
 587  2114.203
 588  2103.199
 589  2148.535
 590  2004.029
 591  1947.585
 592  2113.655
 593  2217.305
 594  2393.02
 595  2351.008
 596  2365.586
 597  2504.866
 598  2620.505
 599  2849.119
 600  3020.341
 601  3090.92
 602  3118.01
 603  2968.72
 604  2841.598
 605  2862.132
 606  2878.796
 607  2913.385
 608  2660.325
 609  2420.885
 610  2059.384
 611  1900.998
 612  1693.544
 613  1689.956
 614  1673.268
 615  1772.639
 616  1656.103
 617  1758.838
 618  1800.659
 619  1784.799
 620  1700.375
 621  1737.041
 622  1707.246
 623  1707.531
 624  1734.903
 625  1801.852
 626  1842.091
 627  1830.575
 628  1811.655
 629  1721.647
 630  1744.146
 631  1828.135
 632  1878.244
 633  1817.224
 634  1845.269
 635  1950.609
 636  2037.768
 637  1928.302
 638  1860.505
 639  1904.281
 640  1846.195
 641  1739.147
 642  1594.506
 643  1618.868
 644  1757.394
 645  1933.702
 646  1999.035
 647  2001.487
 648  2029.49
 649  2035.852
 650  2105.77
 651  2088.052
 652  2054.74
 653  2109.498
 654  2164.743
 655  2226.258
 656  2102.691
 657  2004.745
 658  2026.184
 659  1988.05
 660  1961.844
 661  1943.607
 662  1899.475
 663  1930.692
 664  1990.39
 665  1985.968
 666  1899.518
 667  1803.439
 668  1797.378
 669  1814.953
 670  1922.339
 671  1997.302
 672  2071.552
 673  2020.05
 674  2039.7
 675  2051.041
 676  2078.808
 677  2086.586
 678  2095.853
 679  2099.077
 680  2089.455
 681  2041.259
 682  1834.88
 683  1687.843
 684  1708.65
 685  1891.709
 686  2003.891
 687  1997.233
 688  1994.357
 689  1936.314
 690  1840.41
 691  1816.532
 692  1886.988
 693  1838.746
 694  1762.338
 695  1715.712
 696  1682.876
 697  1761.454
 698  1812.872
 699  1910.189
 700  2047.546
 701  2119.078
 702  2103.814
 703  2082.004
 704  2103.411
 705  2136.571
 706  2166.198
 707  2174.05
 708  2102.364
 709  2084.066
 710  2089.938
 711  2118.917
 712  2089.125
 713  2095.867
 714  2102.81
 715  1994.716
 716  2077.63
 717  2068.549
 718  2036.984
 719  1917.022
 720  1831.721
 721  1850.257
 722  1776.885
 723  1803.802
 724  1777.819
 725  1813.021
 726  1884.45
 727  1938.205
 728  2023.164
 729  1962.456
 730  1865.22
 731  1825.235
 732  1761.975
 733  1760.345
 734  1805.42
 735  1887.564
 736  1874.182
 737  1815.069
 738  1702.036
 739  1675.675
 740  1659.431
 741  1619.397
 742  1777.092
 743  1791.967
 744  1882.582
 745  1835.85
 746  1822.56
 747  1677.488
 748  1722.968
 749  1723.148
 750  1772.302
 751  1740.296
 752  1731.798
 753  1619.3
 754  1557.718
 755  1579.419
 756  1564.133
 757  1379.52
 758  1380.755
 759  1438.155
 760  1398.658
 761  1379.46
 762  1307.416
 763  1347.418
 764  1279.622
 765  1384.713
 766  1534.329
 767  1533.921
 768  1537.972
 769  1494.886
 770  1498.498
 771  1564.791
 772  1570.574
 773  1650.061
 774  1634.151
 775  1661.154
 776  1543.572
 777  1371.438
 778  1384.151
 779  1451.102
 780  1480.993
 781  1501.691
 782  1693.582
 783  1744.922
 784  1729.943
 785  1681.678
 786  1777.128
 787  1830.35
 788  1953.711
 789  1966.138
 790  1919.639
 791  1734.475
 792  1703.08
 793  1710.484
 794  1759.753
 795  1857.13
 796  1805.981
 797  1721.067
 798  1660.032
 799  1843.687
 800  1933.073
 801  1921.293
 802  1841.26
 803  1837.773
 804  1789.415
 805  1748.203
 806  1736.262
 807  1734.653
 808  1735.177
 809  1713.896
 810  1752.628
 811  1764.537
 812  1780.161
 813  1869.946
 814  1748.733
 815  1712.17
 816  1609.973
 817  1658.588
 818  1595.025
 819  1662.284
 820  1657.52
 821  1761.879
 822  1728.791
 823  1723.45
 824  1664.698
 825  1562.753
 826  1484.334
 827  1617.064
 828  1722.441
 829  1753.339
 830  1660.082
 831  1634.796
 832  1725.779
 833  1805.749
 834  1794.497
 835  1775.561
 836  1814.838
 837  1881.191
 838  1874.014
 839  1756.258
 840  1694.039
 841  1703.22
 842  1800.869
 843  1763.038
 844  1659.45
 845  1513.414
 846  1647.737
 847  1713.543
 848  1700.999
 849  1700.448
 850  1774.413
 851  1930.16
 852  1907.409
 853  1839.317
 854  1714.563
 855  1877.978
 856  1891.509
 857  1892.328
 858  1711.726
 859  1609.231
 860  1571.932
 861  1708.63
 862  1714.289
 863  1668.949
 864  1664.335
 865  1730.246
 866  1754.176
 867  1761.95
 868  1754.825
 869  1823.733
 870  1789.67
 871  1767.553
 872  1701.134
 873  1628.28
 874  1525.635
 875  1544.927
 876  1418.636
 877  1354.058
 878  1345.858
 879  1460.2
 880  1500.268
 881  1469.102
 882  1486.634
 883  1486.944
 884  1418.36
 885  1329.722
 886  1209.233
 887  1236.357
 888  1152.121
 889  1192.939
 890  1182.549
 891  1241.506
 892  1208.326
 893  1131.024
 894  1179.008
 895  1209.752
 896  1211.532
 897  1267.517
 898  1148.273
 899  1160.855
 900  1173.085
 901  1318.531
 902  1270.526
 903  1170.122
 904  1047.664
 905  1085.546
 906  1175.765
 907  1227.497
 908  1272.1
 909  1295.631
 910  1352.179
 911  1433.988
 912  1470.09
 913  1480.777
 914  1497.707
 915  1554.388
 916  1607.946
 917  1655.256
 918  1601.435
 919  1616.791
 920  1519.054
 921  1500.524
 922  1591.368
 923  1595.933
 924  1540.222
 925  1509.019
 926  1512.185
 927  1475.459
 928  1462.26
 929  1466.205
 930  1600.703
 931  1630.887
 932  1692.806
 933  1681.036
 934  1683.956
 935  1649.297
 936  1586.095
 937  1557.137
 938  1556.152
 939  1515.616
 940  1459.113
 941  1456.926
 942  1459.959
 943  1493.414
 944  1475.005
 945  1482.797
 946  1528.246
 947  1500.152
 948  1566.092
 949  1573.127
 950  1567.548
 951  1615.705
 952  1623.385
 953  1587.948
 954  1421.242
 955  1395.098
 956  1439.211
 957  1485.154
 958  1431.128
 959  1399.115
 960  1444.97
 961  1435.789
 962  1317.372
 963  1239.972
 964  1352.089
 965  1425.129
 966  1399.699
 967  1338.13
 968  1279.277
 969  1356.697
 970  1387.192
 971  1357.859
 972  1348.103
 973  1343.726
 974  1393.564
 975  1378.523
 976  1445.16
 977  1318.839
 978  1390.704
 979  1370.059
 980  1469.522
 981  1390.9
 982  1322.899
 983  1263.025
 984  1291.816
 985  1405.789
 986  1654.095
 987  1866.8
 988  1864.552
 989  1673.435
 990  1625.683
 991  1661.569
 992  1575.295
 993  1560.689
 994  1651.516
 995  1837.235
 996  1709.914
 997  1609.378
 998  1616.598
 999  1679.601
1000  1747.246
1001  1691.62
1002  1729.186
1003  1670.145
1004  1790.814
1005  1723.701
1006  1725.298
1007  1681.871
1008  1741.477
1009  1798.364
1010  1819.505
1011  1899.782
1012  1925.06
1013  1957.605
1014  1952.556
1015  1913.093
1016  1786.938
1017  1787.333
1018  1726.71
1019  1621.221
1020  1503.989
1021  1473.679
1022  1461.06
1023  1506.405
