# Input file       =  1208269331.106611_cleaned.dat
# Candidate        =  PSR_0332+5434
# Telescope        =  AR
# Epoch_topo       =  58228.598959567258
# Epoch_bary       =  N/A
# T_sample         =  0.002
# Data Folded      =  7340032
# Data Avg         =  0.228121008127345
# Data StdDev      =  5.85411771923122 
# Profile Bins     =  1024
# Profile Avg      =  1635.09721831497 
# Profile StdDev   =  495.633268185038 
# Reduced chi-sqr  =  1.406
# Prob(Noise)      <  1.38e-16   (~8.2 sigma)
# P_topo (ms)      =  714.556049992216  +/- 0.000197
# P'_topo (s/s)    =  -0                +/- 1.04e-10
# P''_topo (s/s^2) =  0                 +/- 4.59e-14
# P_bary (ms)      =  N/A
# P'_bary (s/s)    =  N/A
# P''_bary (s/s^2) =  N/A
# P_orb (s)        =  N/A
# asin(i)/c (s)    =  N/A
# eccentricity     =  N/A
# w (rad)          =  N/A
# T_peri           =  N/A
######################################################
   0  1557.96
   1  1559.977
   2  1579.066
   3  1620.593
   4  1615.254
   5  1664.026
   6  1638.475
   7  1514.72
   8  1400.05
   9  1276.544
  10  1275.198
  11  1252.572
  12  1269.702
  13  1266.405
  14  1410.501
  15  1384.558
  16  1372.095
  17  1289.334
  18  1368.793
  19  1262.27
  20  1175.424
  21  1148.864
  22  1288.705
  23  1304.534
  24  1179.403
  25  1129.687
  26  1251.521
  27  1296.014
  28  1388.397
  29  1258.016
  30  1248.375
  31  1267.439
  32  1358.66
  33  1419.562
  34  1338.036
  35  1321.591
  36  1344.632
  37  1402.806
  38  1354.535
  39  1369.889
  40  1470.526
  41  1514.885
  42  1673.778
  43  1728.336
  44  1779.129
  45  1688.816
  46  1642.644
  47  1657.54
  48  1646.745
  49  1523.737
  50  1517.225
  51  1584.169
  52  1705.933
  53  1652.049
  54  1587.357
  55  1565.989
  56  1515.871
  57  1602.914
  58  1505.932
  59  1555.424
  60  1596.738
  61  1626.717
  62  1465.074
  63  1327.418
  64  1278.138
  65  1291.698
  66  1448.171
  67  1613.482
  68  1667.656
  69  1455.612
  70  1318.907
  71  1282.188
  72  1369.003
  73  1403.161
  74  1483.24
  75  1494.732
  76  1539.963
  77  1496.379
  78  1393.46
  79  1409.516
  80  1529.356
  81  1666.083
  82  1587.577
  83  1501.303
  84  1525.275
  85  1536.326
  86  1443.132
  87  1407.155
  88  1505.247
  89  1629.573
  90  1661.883
  91  1634.857
  92  1533.647
  93  1479.099
  94  1511.385
  95  1626.773
  96  1693.028
  97  1729.978
  98  1690.735
  99  1709.576
 100  1678.914
 101  1836.792
 102  1944.131
 103  2077.198
 104  1970.987
 105  1873.271
 106  1843.388
 107  1802.723
 108  1890.731
 109  1827.485
 110  1804.175
 111  1893.043
 112  1974.239
 113  2125.281
 114  2061.412
 115  2120.04
 116  2020.379
 117  1974.084
 118  1862.834
 119  1984.927
 120  2018.677
 121  2224.011
 122  2212.349
 123  2305.312
 124  2184.815
 125  2197.197
 126  2142.262
 127  2185.214
 128  2141.984
 129  2146.749
 130  2124.438
 131  2090.239
 132  2038.035
 133  2011.412
 134  2055.433
 135  2135.101
 136  2124.87
 137  2022.555
 138  1953.563
 139  2033.842
 140  2131.816
 141  2146.232
 142  1983.761
 143  1830.846
 144  1805.885
 145  1641.234
 146  1621.961
 147  1631.504
 148  1690.34
 149  1617.793
 150  1648.381
 151  1710.448
 152  1643.439
 153  1503.435
 154  1570.902
 155  1460.681
 156  1535.679
 157  1372.111
 158  1360.466
 159  1247.043
 160  1269.795
 161  1507.127
 162  1599.224
 163  1664.345
 164  1567.915
 165  1515.227
 166  1510.763
 167  1322.534
 168  1200.845
 169  1127.549
 170  1201.583
 171  1287.872
 172  1363.57
 173  1379.26
 174  1337.459
 175  1344.08
 176  1363.265
 177  1309.302
 178  1373.511
 179  1500.873
 180  1685.215
 181  1503.324
 182  1390.745
 183  1347.693
 184  1345.739
 185  1225.56
 186  1261.681
 187  1468.979
 188  1658.198
 189  1593.674
 190  1589.811
 191  1642.087
 192  1605.826
 193  1610.857
 194  1611.452
 195  1576.458
 196  1620.347
 197  1689.606
 198  1830.542
 199  1932.452
 200  1910.405
 201  1852.184
 202  1789.247
 203  1820.093
 204  1940.747
 205  1959.507
 206  1812.203
 207  1817.925
 208  1808.473
 209  1917.548
 210  1828.065
 211  1781.047
 212  1807.74
 213  1673.347
 214  1613.009
 215  1564.225
 216  1626.582
 217  1592.728
 218  1558.826
 219  1438.533
 220  1484.377
 221  1468.504
 222  1498.285
 223  1531.706
 224  1694.031
 225  1815.779
 226  1744.303
 227  1773.544
 228  1666.581
 229  1715.833
 230  1680.973
 231  1681.974
 232  1561.168
 233  1400.563
 234  1457.434
 235  1616.416
 236  1663.017
 237  1678.281
 238  1754.612
 239  1793.936
 240  1638.024
 241  1464.244
 242  1431.401
 243  1485.292
 244  1564.282
 245  1541.744
 246  1559.908
 247  1519.765
 248  1539.004
 249  1658.44
 250  1724.394
 251  1833.638
 252  1780.855
 253  1620.902
 254  1582.362
 255  1702.906
 256  1794.606
 257  1833.776
 258  1632.903
 259  1619.138
 260  1743.169
 261  1893.518
 262  2067.831
 263  1948.84
 264  1954.502
 265  1985.975
 266  1954.895
 267  1863.065
 268  1786.355
 269  1929.531
 270  2017.828
 271  2012.196
 272  2095.823
 273  2130.933
 274  2104.466
 275  2002.924
 276  2011.871
 277  1940.705
 278  1876.083
 279  1898.725
 280  1948.175
 281  1815.063
 282  1709.43
 283  1650.53
 284  1723.604
 285  1620.017
 286  1486.625
 287  1494.701
 288  1373.077
 289  1320.27
 290  1212.715
 291  1290.962
 292  1320.724
 293  1274.896
 294  1303.299
 295  1189.283
 296  1225.992
 297  1212.137
 298  1047.248
 299  1016.584
 300  977.4934
 301  1067.778
 302  1063.792
 303  1069.142
 304  1116.657
 305  1068.45
 306  1084.592
 307  1080.855
 308  1062.615
 309  1035.016
 310  1076.241
 311  1108.521
 312  1038.115
 313  917.6102
 314  892.9728
 315  945.5311
 316  927.1198
 317  791.1558
 318  900.3002
 319  1005.887
 320  925.8297
 321  672.8392
 322  686.5872
 323  816.2826
 324  950.2606
 325  866.7783
 326  884.3141
 327  1004.675
 328  986.2488
 329  969.8068
 330  921.1527
 331  1027.839
 332  1221.475
 333  1204.55
 334  1170.693
 335  1184.102
 336  1254.158
 337  1376.342
 338  1259.208
 339  1215.73
 340  1161.335
 341  1152.042
 342  1313.227
 343  1347.445
 344  1411.14
 345  1432.129
 346  1415.211
 347  1250.376
 348  1174.675
 349  1176.702
 350  1126.019
 351  1009.707
 352  1026.986
 353  1204.973
 354  1233.267
 355  1235.908
 356  1184.476
 357  1299.008
 358  1358.925
 359  1447.795
 360  1384.9
 361  1163.761
 362  954.8493
 363  1016.125
 364  1155.712
 365  1132.393
 366  1105.542
 367  1232.195
 368  1420.352
 369  1521.261
 370  1538.223
 371  1535.642
 372  1436.643
 373  1407.535
 374  1448.647
 375  1342.101
 376  1266.797
 377  1446.536
 378  1513.633
 379  1436.606
 380  1373.723
 381  1537.058
 382  1793.586
 383  1797.427
 384  1745.761
 385  1617.201
 386  1635.966
 387  1685.343
 388  1685.396
 389  1550.301
 390  1572.291
 391  1526.551
 392  1772.164
 393  1776.949
 394  1767.959
 395  1727.959
 396  1703.931
 397  1784.769
 398  1895.332
 399  1989.954
 400  1972.712
 401  1931.097
 402  1982.874
 403  1975.534
 404  1945.922
 405  2015.957
 406  2100.948
 407  2045.728
 408  1809.373
 409  1798.766
 410  1821.431
 411  1974.86
 412  2012.757
 413  2110.777
 414  2094.253
 415  2092.794
 416  2031.499
 417  2088.66
 418  2188.668
 419  2182.494
 420  1979.989
 421  1888.988
 422  2010.509
 423  2055.101
 424  2013.464
 425  1983.867
 426  1961.807
 427  1943.391
 428  1852.827
 429  1834.058
 430  1783.936
 431  1712.363
 432  1624.66
 433  1585.003
 434  1586.236
 435  1604.6
 436  1561.833
 437  1593.57
 438  1486.744
 439  1375.331
 440  1395.001
 441  1380.55
 442  1568.606
 443  1544.861
 444  1425.326
 445  1350.597
 446  1404.175
 447  1492.842
 448  1403.103
 449  1209.527
 450  994.3984
 451  923.1177
 452  1056.683
 453  1156.459
 454  1234.42
 455  1313.981
 456  1406.07
 457  1452.541
 458  1418.114
 459  1355.674
 460  1117.116
 461  1160.001
 462  1269.366
 463  1371.281
 464  1422.094
 465  1445.31
 466  1624.101
 467  1505.665
 468  1368.672
 469  1300.92
 470  1483.298
 471  1467.687
 472  1433.215
 473  1482.186
 474  1571.314
 475  1410.352
 476  1345.08
 477  1481.108
 478  1547.798
 479  1488.856
 480  1427.834
 481  1466.334
 482  1563.829
 483  1542.827
 484  1560.165
 485  1461.908
 486  1468.129
 487  1537.372
 488  1733.516
 489  1852.6
 490  1759.864
 491  1699.045
 492  1551.205
 493  1577.354
 494  1582.806
 495  1605.686
 496  1512.665
 497  1459.11
 498  1475.961
 499  1481.224
 500  1464.438
 501  1405.98
 502  1441.308
 503  1691.396
 504  1730.578
 505  1863.365
 506  2003.638
 507  2104.327
 508  1930.915
 509  1715.953
 510  1669.473
 511  1570.85
 512  1556.109
 513  1586.192
 514  1564.023
 515  1663.404
 516  1771.478
 517  1987.204
 518  1977.148
 519  1916.05
 520  2001.466
 521  1895.197
 522  1775.407
 523  1563.296
 524  1592.952
 525  1569.304
 526  1532.458
 527  1541.192
 528  1649.199
 529  1615.889
 530  1567.578
 531  1704.396
 532  1741.25
 533  1704.081
 534  1593.065
 535  1766.142
 536  1908.955
 537  1821.877
 538  1672.307
 539  1559.509
 540  1606.785
 541  1640.255
 542  1813.114
 543  1763.31
 544  1812.619
 545  1825.493
 546  1962.15
 547  1977.475
 548  2019.117
 549  2098.708
 550  2260.898
 551  2311.757
 552  2327.906
 553  2178.444
 554  2146.919
 555  2072.296
 556  2038.568
 557  2075.259
 558  2274.424
 559  2240.586
 560  2308.075
 561  2148.852
 562  2155.223
 563  2092.315
 564  2122.909
 565  2127.887
 566  2141.797
 567  2170.221
 568  2208.236
 569  2239.008
 570  2081.85
 571  2065.701
 572  1963.001
 573  2009.874
 574  1947.21
 575  1899.966
 576  1815.427
 577  1692.219
 578  1762.967
 579  1947.318
 580  2105.788
 581  2013.195
 582  1961.085
 583  1884.513
 584  1859.578
 585  1653.969
 586  1620.611
 587  1686.265
 588  1690.733
 589  1704.362
 590  1733.25
 591  1780.659
 592  1721.339
 593  1599.564
 594  1612.886
 595  1748.749
 596  1969.354
 597  2033.462
 598  2073.886
 599  2089.349
 600  2049.215
 601  2137.156
 602  2154.455
 603  2082.804
 604  1994.636
 605  2000.555
 606  2115.765
 607  1931.343
 608  1682.35
 609  1541.832
 610  1431.462
 611  1381.094
 612  1319.838
 613  1251.574
 614  1179.453
 615  1081.159
 616  1253.093
 617  1405.214
 618  1480.479
 619  1387.509
 620  1223.689
 621  1178.184
 622  1128.34
 623  1203.72
 624  1159.75
 625  1169.615
 626  1235.119
 627  1268.981
 628  1452.88
 629  1522.261
 630  1607.918
 631  1530.734
 632  1294.303
 633  1188.446
 634  1084.411
 635  1268.331
 636  1250.325
 637  1232.426
 638  1178.545
 639  1405.907
 640  1572.161
 641  1618.151
 642  1499.201
 643  1553.154
 644  1457.714
 645  1570.843
 646  1466.632
 647  1509.844
 648  1557.461
 649  1708.485
 650  1767.687
 651  1613.38
 652  1555.683
 653  1521.911
 654  1662.686
 655  1694.455
 656  1592.85
 657  1380.33
 658  1276.358
 659  1352.114
 660  1538.781
 661  1582.051
 662  1549.748
 663  1578.245
 664  1767.09
 665  1819.54
 666  1803.423
 667  1754.957
 668  1750.643
 669  1651.963
 670  1607.814
 671  1613.448
 672  1695.947
 673  1652.119
 674  1665.851
 675  1760.442
 676  1867.811
 677  2052.052
 678  2187.513
 679  2132.137
 680  2025.505
 681  1914.851
 682  1824.582
 683  1800.691
 684  1920.255
 685  2073.074
 686  2018.486
 687  1958.629
 688  2001.345
 689  1949.308
 690  1978.253
 691  1923.417
 692  1965.537
 693  2117.527
 694  2130.964
 695  2103.598
 696  2096.344
 697  2061.571
 698  2165.041
 699  2118.945
 700  2177.881
 701  2149.324
 702  2104.331
 703  2032.414
 704  1944.725
 705  1787.698
 706  1738.786
 707  1735.303
 708  1734.846
 709  1837.878
 710  1803.928
 711  1746.9
 712  1810.815
 713  1820.603
 714  1934.688
 715  1902.23
 716  1875.578
 717  1861.65
 718  1774.613
 719  1769.526
 720  1722.834
 721  1808.748
 722  1903.313
 723  2017.222
 724  2006.227
 725  1984.197
 726  1765.443
 727  1695.237
 728  1748.561
 729  1841.43
 730  1891.346
 731  1895.766
 732  1954.223
 733  1927.176
 734  1754.909
 735  1595.896
 736  1568.185
 737  1614.05
 738  1580.769
 739  1267.657
 740  1215.094
 741  1330.776
 742  1487.799
 743  1463.995
 744  1493.094
 745  1513.08
 746  1616.782
 747  1385.168
 748  1383.594
 749  1279.027
 750  1345.249
 751  1422.728
 752  1450.438
 753  1508.318
 754  1539.927
 755  1638.991
 756  1524.653
 757  1359.468
 758  1160.005
 759  1201.772
 760  1372.12
 761  1556.758
 762  1501.775
 763  1349.49
 764  1223.205
 765  1211.691
 766  1202.947
 767  1279.212
 768  1352.331
 769  1425.008
 770  1340.124
 771  1274.418
 772  1263.55
 773  1265.254
 774  1406.243
 775  1378.51
 776  1369.321
 777  1307.406
 778  1368.908
 779  1435.838
 780  1424.485
 781  1410.53
 782  1373.084
 783  1304.338
 784  1323.916
 785  1272.081
 786  1423.412
 787  1471.635
 788  1423.448
 789  1465.008
 790  1514.554
 791  1564.201
 792  1550.119
 793  1537.624
 794  1517.359
 795  1493.929
 796  1424.797
 797  1483.934
 798  1551.157
 799  1614.128
 800  1566.37
 801  1624.144
 802  1768.165
 803  1826.263
 804  1767.656
 805  1759.549
 806  1574.237
 807  1497.414
 808  1493.673
 809  1651.826
 810  1778.173
 811  1786.85
 812  1810.607
 813  1800.567
 814  1848.468
 815  1892.447
 816  1914.675
 817  2031.936
 818  2058.384
 819  1983.225
 820  1757.61
 821  1772.662
 822  1872.446
 823  1851.614
 824  1855.237
 825  1864.091
 826  1964.644
 827  1850.022
 828  1751.623
 829  1763.393
 830  1781.294
 831  1814.621
 832  1836.525
 833  1850.457
 834  1879.744
 835  1936.312
 836  1970.198
 837  2026.861
 838  2027.018
 839  2074.589
 840  2021.021
 841  1996.415
 842  2056.769
 843  2096.449
 844  2091.273
 845  2143.663
 846  2150.13
 847  2127.004
 848  2115.126
 849  2079.251
 850  2004.017
 851  1883.356
 852  2031.503
 853  2151.54
 854  2209.232
 855  2231.06
 856  2277.951
 857  2298.857
 858  2364.635
 859  2309.509
 860  2356.389
 861  2290.077
 862  2288.45
 863  2217.925
 864  2206.566
 865  2157.664
 866  2316.938
 867  2300.081
 868  2272.642
 869  2104.751
 870  2163.105
 871  2236.024
 872  2195.541
 873  2230.781
 874  2095.075
 875  2099.693
 876  2000.849
 877  1982.245
 878  1778.394
 879  1705.408
 880  1638.483
 881  1659.031
 882  1818.014
 883  1850.102
 884  1888.737
 885  1852.975
 886  1764.242
 887  1634.101
 888  1389.333
 889  1303.265
 890  1357.581
 891  1500.719
 892  1520.903
 893  1481.154
 894  1530.092
 895  1575.695
 896  1452.54
 897  1348.086
 898  1239.332
 899  1311.509
 900  1416.26
 901  1420.407
 902  1261.348
 903  1204.838
 904  1299.008
 905  1455.56
 906  1503.491
 907  1455.249
 908  1337.98
 909  1310.006
 910  1294.452
 911  1254.443
 912  1268.725
 913  1350.271
 914  1462.452
 915  1413.684
 916  1398.766
 917  1411.269
 918  1473.412
 919  1465.712
 920  1501.273
 921  1319.868
 922  1257.49
 923  1307.119
 924  1473.658
 925  1603.704
 926  1649.203
 927  1632.205
 928  1555.02
 929  1472.37
 930  1484.749
 931  1510.269
 932  1496.026
 933  1402.458
 934  1179.239
 935  1087.074
 936  930.1617
 937  1018.349
 938  1159.503
 939  1350.051
 940  1416.01
 941  1465.218
 942  1443.041
 943  1436.503
 944  1513.006
 945  1615.225
 946  1718.386
 947  1511.889
 948  1374.231
 949  1174.269
 950  1026.248
 951  893.0274
 952  960.2126
 953  1083.805
 954  1130.15
 955  1120.08
 956  1167.13
 957  1280.012
 958  1272.201
 959  1308.985
 960  1423.967
 961  1503.475
 962  1390.974
 963  1304.29
 964  1291.584
 965  1332.648
 966  1428.582
 967  1484.724
 968  1497.224
 969  1415.72
 970  1416.779
 971  1496.482
 972  1587.633
 973  1577.769
 974  1413.102
 975  1521.06
 976  1567.102
 977  1708.968
 978  1676.314
 979  1721.908
 980  1754.929
 981  1906.97
 982  1859.366
 983  1873.943
 984  1855.844
 985  1947.193
 986  1990.32
 987  1961.948
 988  2003.195
 989  2118.873
 990  2209.835
 991  2185.541
 992  2094.818
 993  1993.861
 994  2000.411
 995  1970.306
 996  2165.483
 997  2196.85
 998  2248.194
 999  2210.991
1000  2149.425
1001  2180.255
1002  2347.933
1003  2419.722
1004  2441.092
1005  2302.67
1006  2155.528
1007  2036.289
1008  1866.022
1009  1788.954
1010  1887.176
1011  2024.697
1012  2144.258
1013  2073.808
1014  2073.13
1015  2125.506
1016  2193.27
1017  2187.829
1018  1923.462
1019  1763.231
1020  1816.05
1021  1929.476
1022  1963.808
1023  1730.802
