# Input file       =  1209216790.123209_cleaned.dat
# Candidate        =  PSR_0332+5434
# Telescope        =  AR
# Epoch_topo       =  58239.564920407509
# Epoch_bary       =  N/A
# T_sample         =  0.002
# Data Folded      =  7340032
# Data Avg         =  0.0416437319974884
# Data StdDev      =  1.00010556310281 
# Profile Bins     =  512
# Profile Avg      =  597.019784457773 
# Profile StdDev   =  119.745675767594 
# Reduced chi-sqr  =  1.244
# Prob(Noise)      <  0.000138   (~3.6 sigma)
# P_topo (ms)      =  714.546560401417  +/- 0.000356
# P'_topo (s/s)    =  -0                +/- 1.88e-10
# P''_topo (s/s^2) =  0                 +/- 8.29e-14
# P_bary (ms)      =  N/A
# P'_bary (s/s)    =  N/A
# P''_bary (s/s^2) =  N/A
# P_orb (s)        =  N/A
# asin(i)/c (s)    =  N/A
# eccentricity     =  N/A
# w (rad)          =  N/A
# T_peri           =  N/A
######################################################
   0  575.3768
   1  539.0072
   2  577.3425
   3  627.9403
   4  566.5121
   5  612.2997
   6  587.4913
   7  420.3814
   8  437.7842
   9  480.2439
  10  456.9352
  11  476.4982
  12  517.7502
  13  542.0348
  14  459.0374
  15  442.1866
  16  480.5724
  17  549.8271
  18  592.5464
  19  576.6234
  20  490.6777
  21  459.7402
  22  511.2397
  23  638.4335
  24  645.1013
  25  514.6303
  26  484.7451
  27  498.4524
  28  535.6779
  29  554.822
  30  554.0269
  31  528.237
  32  618.4697
  33  631.5974
  34  685.9025
  35  730.7485
  36  668.4385
  37  605.5551
  38  550.6039
  39  618.0557
  40  698.7646
  41  701.2725
  42  636.6712
  43  555.9427
  44  634.6335
  45  630.1385
  46  665.6851
  47  668.9323
  48  644.819
  49  638.4084
  50  555.8159
  51  532.3561
  52  498.8572
  53  604.8119
  54  646.6625
  55  580.8957
  56  563.3935
  57  501.8183
  58  519.2078
  59  618.8337
  60  512.142
  61  570.7808
  62  537.2308
  63  509.0518
  64  613.2927
  65  619.4431
  66  578.5424
  67  463.0927
  68  496.2863
  69  520.7066
  70  530.2083
  71  528.6324
  72  562.1036
  73  584.36
  74  617.179
  75  617.2465
  76  548.5023
  77  617.5453
  78  641.919
  79  585.3238
  80  512.1106
  81  564.5975
  82  620.0973
  83  607.0742
  84  654.366
  85  591.2935
  86  660.742
  87  690.6419
  88  626.6683
  89  635.798
  90  713.8285
  91  708.6256
  92  756.6874
  93  879.7933
  94  972.1194
  95  1197.536
  96  1371.02
  97  1235.096
  98  1085.535
  99  797.5435
 100  677.5834
 101  673.7499
 102  723.9943
 103  658.1424
 104  672.9896
 105  625.429
 106  583.8032
 107  548.1577
 108  619.3641
 109  657.2098
 110  657.7125
 111  717.152
 112  719.0648
 113  695.6896
 114  596.0927
 115  673.0662
 116  819.2382
 117  675.9847
 118  593.0048
 119  664.7495
 120  619.4878
 121  531.475
 122  554.9515
 123  623.3041
 124  653.0216
 125  646.2336
 126  576.3966
 127  587.6599
 128  608.0339
 129  544.0192
 130  522.16
 131  586.7455
 132  630.129
 133  624.2711
 134  615.637
 135  556.8179
 136  496.4728
 137  503.1622
 138  511.7845
 139  567.4438
 140  659.1072
 141  605.416
 142  517.8612
 143  510.1789
 144  592.571
 145  658.7958
 146  683.7492
 147  649.2056
 148  641.3179
 149  649.3063
 150  636.0121
 151  520.5114
 152  515.4812
 153  557.1739
 154  587.2387
 155  515.5389
 156  555.6598
 157  563.0107
 158  694.2953
 159  674.0244
 160  587.6906
 161  592.3533
 162  605.1381
 163  586.0864
 164  597.1297
 165  576.2108
 166  648.3767
 167  634.0676
 168  542.5602
 169  443.4166
 170  444.6803
 171  546.1562
 172  538.7816
 173  653.0119
 174  576.7681
 175  454.2872
 176  504.5064
 177  538.7001
 178  619.1117
 179  665.423
 180  676.6863
 181  690.3071
 182  682.4396
 183  658.5621
 184  689.4191
 185  582.9139
 186  569.3734
 187  655.0425
 188  638.1839
 189  575.0671
 190  675.3692
 191  699.8595
 192  662.3802
 193  676.861
 194  715.283
 195  662.9489
 196  653.6534
 197  792.6312
 198  832.203
 199  767.0281
 200  647.096
 201  654.9612
 202  736.1513
 203  654.1266
 204  622.7745
 205  611.1177
 206  672.5118
 207  670.8008
 208  619.9592
 209  546.6302
 210  408.9513
 211  479.9997
 212  631.9422
 213  621.5664
 214  501.5568
 215  516.7581
 216  479.2108
 217  525.1036
 218  559.8943
 219  638.5374
 220  634.2048
 221  617.349
 222  648.5512
 223  575.566
 224  414.0249
 225  528.8042
 226  553.7313
 227  444.442
 228  531.255
 229  573.772
 230  558.1635
 231  486.3769
 232  476.2415
 233  588.4108
 234  530.6932
 235  500.7615
 236  562.9908
 237  532.6634
 238  487.9955
 239  603.7913
 240  563.3846
 241  466.1848
 242  379.6572
 243  476.4194
 244  448.2311
 245  531.3729
 246  662.4843
 247  587.6242
 248  537.9634
 249  547.8151
 250  605.1247
 251  511.5874
 252  484.0613
 253  520.441
 254  553.092
 255  597.1082
 256  622.007
 257  406.3163
 258  425.0262
 259  538.0657
 260  571.6711
 261  529.8812
 262  556.4053
 263  523.4245
 264  560.2268
 265  605.0699
 266  615.8595
 267  608.5622
 268  606.4771
 269  563.8366
 270  479.0475
 271  456.1052
 272  608.1785
 273  607.5914
 274  531.9306
 275  579.2876
 276  579.2788
 277  527.3813
 278  555.5001
 279  499.8031
 280  495.9267
 281  422.4915
 282  550.621
 283  511.6121
 284  471.0269
 285  573.6068
 286  616.3091
 287  545.8932
 288  558.1487
 289  670.7123
 290  610.5099
 291  504.1044
 292  520.1811
 293  502.1689
 294  614.2458
 295  737.2405
 296  720.1922
 297  661.1893
 298  625.2656
 299  646.0223
 300  667.2574
 301  550.6118
 302  580.069
 303  636.0382
 304  610.7817
 305  698.2494
 306  684.2715
 307  648.887
 308  633.2288
 309  504.2596
 310  558.6736
 311  609.3962
 312  631.4014
 313  666.6203
 314  615.9813
 315  557.0517
 316  392.7774
 317  444.9796
 318  575.2608
 319  624.8907
 320  548.2927
 321  568.7881
 322  559.473
 323  651.3427
 324  615.2877
 325  541.8076
 326  561.9476
 327  732.0852
 328  656.8492
 329  605.7151
 330  664.736
 331  672.5847
 332  670.9433
 333  626.2043
 334  699.9725
 335  783.4216
 336  689.3715
 337  658.0353
 338  552.0465
 339  598.1772
 340  610.3101
 341  720.8599
 342  695.1677
 343  682.2234
 344  546.2053
 345  569.5118
 346  534.0123
 347  457.0745
 348  513.1277
 349  613.6934
 350  581.9163
 351  499.6082
 352  417.4532
 353  535.9445
 354  489.1959
 355  373.9469
 356  436.8045
 357  570.693
 358  653.2089
 359  555.7833
 360  486.9699
 361  531.1127
 362  603.1355
 363  616.3507
 364  629.8045
 365  625.6088
 366  610.5958
 367  566.9182
 368  556.0331
 369  600.3469
 370  561.6368
 371  525.4316
 372  481.6087
 373  565.3556
 374  566.2482
 375  555.6428
 376  489.1931
 377  529.2928
 378  625.6667
 379  613.0198
 380  556.9197
 381  575.3565
 382  560.5051
 383  586.8647
 384  570.395
 385  531.5332
 386  465.6454
 387  544.3728
 388  565.4825
 389  591.7186
 390  581.648
 391  700.8672
 392  558.639
 393  391.5091
 394  497.3518
 395  553.1799
 396  665.3945
 397  590.3336
 398  524.8907
 399  589.069
 400  575.9354
 401  605.0917
 402  571.2305
 403  468.9563
 404  589.2882
 405  536.5157
 406  545.0538
 407  589.3774
 408  601.27
 409  615.2372
 410  581.5431
 411  490.2432
 412  522.5836
 413  517.8008
 414  628.2995
 415  740.4771
 416  797.1605
 417  808.5194
 418  697.1827
 419  557.4551
 420  663.6628
 421  744.2338
 422  797.0452
 423  823.7007
 424  688.7869
 425  672.4173
 426  588.8574
 427  558.7603
 428  501.0503
 429  564.7383
 430  551.1345
 431  608.1843
 432  644.8489
 433  596.9831
 434  581.3412
 435  616.4062
 436  659.6441
 437  581.3938
 438  629.9509
 439  567.0793
 440  582.692
 441  596.5331
 442  601.7277
 443  692.2932
 444  683.8252
 445  613.1085
 446  635.2617
 447  534.823
 448  650.9418
 449  645.776
 450  602.2362
 451  614.0894
 452  607.766
 453  543.9106
 454  601.7975
 455  602.3756
 456  656.9139
 457  545.6735
 458  632.6309
 459  684.9471
 460  640.0189
 461  596.0443
 462  709.62
 463  589.9258
 464  593.0066
 465  592.2109
 466  618.9198
 467  626.5359
 468  658.123
 469  601.774
 470  608.5027
 471  525.2976
 472  657.2637
 473  734.4702
 474  614.9147
 475  545.0471
 476  541.2592
 477  548.6143
 478  601.5481
 479  491.8731
 480  551.6229
 481  725.7855
 482  733.78
 483  564.136
 484  603.4185
 485  650.2176
 486  631.8915
 487  583.8174
 488  582.7928
 489  581.3485
 490  691.4387
 491  556.5336
 492  507.401
 493  580.1859
 494  543.4863
 495  604.2436
 496  637.3563
 497  598.8396
 498  544.9049
 499  631.5062
 500  686.6287
 501  589.2278
 502  673.9473
 503  694.7358
 504  623.5417
 505  520.9606
 506  539.6809
 507  683.5331
 508  676.4375
 509  654.5646
 510  620.2965
 511  534.8433
