# Input file       =  1209617964.103228_cleaned.dat
# Candidate        =  PSR_0332+5434
# Telescope        =  AR
# Epoch_topo       =  58244.208137768845
# Epoch_bary       =  N/A
# T_sample         =  0.002
# Data Folded      =  7208960
# Data Avg         =  0.433102726363787
# Data StdDev      =  6.48498717683412 
# Profile Bins     =  256
# Profile Avg      =  12196.1633927818 
# Profile StdDev   =  1088.24190901337 
# Reduced chi-sqr  =  2.242
# Prob(Noise)      <  2.37e-26   (~10.6 sigma)
# P_topo (ms)      =  714.541963138109  +/- 1.78e-05
# P'_topo (s/s)    =  -0                +/- 9.57e-12
# P''_topo (s/s^2) =  0                 +/- 4.3e-15
# P_bary (ms)      =  N/A
# P'_bary (s/s)    =  N/A
# P''_bary (s/s^2) =  N/A
# P_orb (s)        =  N/A
# asin(i)/c (s)    =  N/A
# eccentricity     =  N/A
# w (rad)          =  N/A
# T_peri           =  N/A
######################################################
   0  13551.53
   1  11568.82
   2  10611.39
   3  11675.02
   4  12446.56
   5  11986.1
   6  10621.73
   7  9989.625
   8  13540.93
   9  12825.77
  10  11065.99
  11  12158.92
  12  12769.91
  13  12456.21
  14  10278.05
  15  10494.21
  16  14086.21
  17  12872.13
  18  10421.7
  19  11704.91
  20  13737.67
  21  13876.09
  22  10841.82
  23  10403.84
  24  12744.68
  25  14401.32
  26  11329.12
  27  10841.96
  28  13175.02
  29  14386.17
  30  12067.96
  31  10398.34
  32  11754.72
  33  14033.9
  34  12726.18
  35  11174.66
  36  12643.39
  37  14228.25
  38  12857.35
  39  11033.5
  40  10882.63
  41  14283.25
  42  13494.17
  43  11354.87
  44  11487.88
  45  13428.89
  46  13887.78
  47  11206.52
  48  11616.99
  49  13345.07
  50  13614.18
  51  11494.38
  52  12278.9
  53  13893.55
  54  13129.55
  55  11311.45
  56  11148.12
  57  13330.7
  58  13886.26
  59  12163.37
  60  11582.36
  61  13612.43
  62  14257.19
  63  11824.91
  64  10476.23
  65  12311.18
  66  13936.56
  67  11410.94
  68  10278.84
  69  12204.44
  70  14457.39
  71  10666.49
  72  9286.899
  73  10974.4
  74  13996.17
  75  13364.26
  76  10705.65
  77  11177.68
  78  13880.48
  79  14044.52
  80  10830.28
  81  11071.86
  82  13110.29
  83  14159.58
  84  11643.47
  85  12176.18
  86  12808.56
  87  14174.81
  88  11383.51
  89  10729.4
  90  12747.73
  91  14381.91
  92  12685.25
  93  11319.47
  94  12889.81
  95  13916.92
  96  11275.21
  97  11517.92
  98  12056.68
  99  13708.17
 100  12905.55
 101  11762.78
 102  13267.72
 103  14279.34
 104  12601.22
 105  10587.87
 106  10967.39
 107  13818.53
 108  12667.21
 109  10593.44
 110  12281.36
 111  14011.68
 112  13499.55
 113  10032.85
 114  10448.53
 115  13017.67
 116  13699.25
 117  9874.962
 118  10669.17
 119  13872.54
 120  14184.14
 121  10456.01
 122  10425.1
 123  13216.48
 124  14388.68
 125  12011.08
 126  11613.53
 127  12235.03
 128  13711.71
 129  11937.36
 130  9950.115
 131  11021.12
 132  13181.51
 133  12470.39
 134  10411.94
 135  12355.02
 136  13614.97
 137  12047.53
 138  10029.99
 139  11376.86
 140  13551.09
 141  12646.84
 142  10420.87
 143  11351.98
 144  13080.46
 145  13094.11
 146  10950.99
 147  10759.94
 148  13676.07
 149  15967.74
 150  14912.17
 151  14285.63
 152  13260.62
 153  13409.87
 154  10781.54
 155  10900.41
 156  12725.18
 157  13860.43
 158  10755.42
 159  10934.57
 160  13507.6
 161  14603.88
 162  11482.86
 163  9901.11
 164  12413.93
 165  14716.56
 166  13117.29
 167  10348.62
 168  12115.89
 169  14199.29
 170  14214.42
 171  10805.26
 172  11042.47
 173  14135.04
 174  14113.27
 175  11669.31
 176  13090.83
 177  13534.67
 178  12921.88
 179  10522.2
 180  10399.93
 181  13119.51
 182  13290.7
 183  11066.73
 184  10823.07
 185  12018.19
 186  13705.71
 187  10633.64
 188  10297.51
 189  12227.33
 190  13443.07
 191  11557.25
 192  10741.38
 193  12336.39
 194  12708.74
 195  10775.27
 196  10007
 197  11607.07
 198  13652.65
 199  12642.29
 200  10290.67
 201  11525.24
 202  14195.76
 203  12247.96
 204  9880.676
 205  10770.23
 206  13556.95
 207  13138.03
 208  11011.82
 209  11254.03
 210  13943.24
 211  14299.93
 212  10702.03
 213  10033.41
 214  13079.76
 215  14317.39
 216  11314.52
 217  11255.36
 218  13185.36
 219  14642.58
 220  11730.18
 221  10371.92
 222  11970.14
 223  14755.33
 224  12403.34
 225  10997.77
 226  12714.88
 227  13370.4
 228  11884.18
 229  11007.35
 230  11743.73
 231  13107.76
 232  12225.81
 233  10196.72
 234  11919.54
 235  13242.34
 236  11482.04
 237  9268.513
 238  10060.13
 239  13351.99
 240  13355.02
 241  10405.4
 242  10986.27
 243  12965.35
 244  12781.77
 245  10227.05
 246  9471.763
 247  11668.7
 248  13913.38
 249  10980.01
 250  9976.795
 251  11907.43
 252  13204.23
 253  11431.63
 254  8915.351
 255  11189.47
