# Input file       =  1209216790.123209_cleaned.dat
# Candidate        =  PSR_0332+5434
# Telescope        =  AR
# Epoch_topo       =  58239.564920407509
# Epoch_bary       =  N/A
# T_sample         =  0.002
# Data Folded      =  7340032
# Data Avg         =  0.0416437319974884
# Data StdDev      =  1.00010556310281 
# Profile Bins     =  512
# Profile Avg      =  597.019777927111 
# Profile StdDev   =  119.745675767594 
# Reduced chi-sqr  =  1.240
# Prob(Noise)      <  0.000168   (~3.6 sigma)
# P_topo (ms)      =  714.546559719514  +/- 0.000356
# P'_topo (s/s)    =  -0                +/- 1.88e-10
# P''_topo (s/s^2) =  0                 +/- 8.29e-14
# P_bary (ms)      =  N/A
# P'_bary (s/s)    =  N/A
# P''_bary (s/s^2) =  N/A
# P_orb (s)        =  N/A
# asin(i)/c (s)    =  N/A
# eccentricity     =  N/A
# w (rad)          =  N/A
# T_peri           =  N/A
######################################################
   0  1367.321
   1  1249.751
   2  1106.006
   3  824.2313
   4  682.2723
   5  669.7128
   6  724.8922
   7  662.856
   8  677.7678
   9  620.2049
  10  595.1134
  11  540.6821
  12  616.423
  13  655.775
  14  651.7408
  15  711.4175
  16  719.8958
  17  700.04
  18  607.6149
  19  657.3934
  20  813.9797
  21  699.9901
  22  584.9275
  23  661.1517
  24  633.8477
  25  531.181
  26  554.218
  27  612.2324
  28  657.598
  29  644.9394
  30  583.2154
  31  577.5515
  32  615.1758
  33  547.1732
  34  523.9135
  35  574.0618
  36  629.491
  37  629.8979
  38  618.0355
  39  560.2875
  40  497.9413
  41  504.0751
  42  509.5459
  43  563.0374
  44  650.2625
  45  614.2797
  46  525.7985
  47  505.1779
  48  588.8251
  49  651.3313
  50  688.305
  51  651.0934
  52  637.926
  53  646.1322
  54  645.6282
  55  532.5462
  56  508.1243
  57  551.5783
  58  588.0493
  59  521.8554
  60  548.5006
  61  560.509
  62  679.445
  63  691.8926
  64  584.3497
  65  594.2188
  66  604.6068
  67  587.3863
  68  592.7422
  69  579.9522
  70  638.2549
  71  642.4887
  72  551.3228
  73  457.1728
  74  429.4326
  75  547.969
  76  532.4603
  77  650.8998
  78  585.4508
  79  457.5038
  80  501.5094
  81  533.371
  82  614.7822
  83  660.8956
  84  679.3536
  85  685.4911
  86  685.2473
  87  651.5568
  88  694.4847
  89  593.3425
  90  566.2334
  91  645.372
  92  648.5015
  93  577.3613
  94  666.8803
  95  693.8767
  96  672.1573
  97  671.7664
  98  713.3682
  99  669.293
 100  646.421
 101  778.6144
 102  838.2054
 103  772.7111
 104  657.5903
 105  647.3713
 106  738.8128
 107  656.2557
 108  625.4872
 109  611.3875
 110  662.7975
 111  682.4771
 112  619.6556
 113  562.0009
 114  410.549
 115  470.3784
 116  614.6365
 117  636.071
 118  506.052
 119  516.7824
 120  482.8388
 121  516.5417
 122  556.3279
 123  633.1376
 124  638.7265
 125  613.5897
 126  643.5807
 127  596.3294
 128  421.3878
 129  513.2413
 130  562.5217
 131  445.7215
 132  522.3882
 133  573.9257
 134  560.3986
 135  497.8635
 136  466.174
 137  580.4787
 138  539.9656
 139  499.8119
 140  555.0699
 141  545.3922
 142  475.2399
 143  601.4855
 144  568.6949
 145  481.6712
 146  372.7885
 147  468.0378
 148  459.142
 149  515.1352
 150  660.2023
 151  593.566
 152  535.9627
 153  551.0359
 154  599.0682
 155  526.0195
 156  481.3266
 157  517.7432
 158  552.824
 159  583.3761
 160  632.3661
 161  423.2419
 162  417.0038
 163  529.5035
 164  570.252
 165  536.209
 166  553.5419
 167  530.4401
 168  547.9035
 169  600.8961
 170  616.699
 171  609.3076
 172  609.8002
 173  569.2663
 174  483.7393
 175  458.188
 176  591.5928
 177  616.5626
 178  534.9211
 179  570.8945
 180  584.9361
 181  525.868
 182  557.7006
 183  502.4348
 184  495.9336
 185  426.6473
 186  538.174
 187  526.9148
 188  468.6133
 189  558.9865
 190  617.8792
 191  551.6909
 192  547.4385
 193  664.8889
 194  622.5334
 195  512.3123
 196  519.1281
 197  500.7141
 198  599.0154
 199  731.5228
 200  723.9739
 201  669.1384
 202  626.8133
 203  637.8909
 204  670.8404
 205  562.8074
 206  571.1727
 207  634.6371
 208  609.358
 209  693.7912
 210  690.937
 211  648.6443
 212  636.3022
 213  515.2928
 214  547.3508
 215  606.8953
 216  622.5342
 217  673.4831
 218  622.0258
 219  564.7631
 220  404.696
 221  430.6127
 222  567.7629
 223  627.6996
 224  549.3319
 225  566.7828
 226  558.1668
 227  645.5731
 228  624.4431
 229  545.9332
 230  554.9016
 231  717.7314
 232  673.9124
 233  597.7854
 234  661.0965
 235  675.7474
 236  673.9884
 237  624.6918
 238  686.9199
 239  785.1548
 240  694.8088
 241  667.1625
 242  557.4465
 243  596.7646
 244  604.7953
 245  710.6517
 246  696.8091
 247  689.1529
 248  556.6324
 249  571.7084
 250  531.9764
 251  463.7838
 252  497.4711
 253  615.5346
 254  584.3376
 255  516.9779
 256  412.931
 257  525.4057
 258  502.0656
 259  375.704
 260  429.9914
 261  551.4989
 262  657.678
 263  567.7219
 264  488.316
 265  527.0213
 266  590.9243
 267  618.4019
 268  624.5753
 269  632.1782
 270  614.7643
 271  569.7445
 272  551.7596
 273  599.2933
 274  563.7985
 275  531.7278
 276  480.2774
 277  560.4641
 278  562.5942
 279  561.8718
 280  491.1714
 281  524.3016
 282  619.0956
 283  621.8991
 284  555.757
 285  575.1276
 286  560.6559
 287  588.9958
 288  566.5328
 289  539.326
 290  466.2526
 291  538.9099
 292  571.3666
 293  589.1935
 294  572.5443
 295  695.1697
 296  576.9269
 297  397.5658
 298  481.2832
 299  548.6737
 300  661.1781
 301  602.1065
 302  521.5485
 303  586.4097
 304  575.7587
 305  603.3043
 306  584.1175
 307  468.6603
 308  578.7113
 309  550.474
 310  536.2902
 311  584.9968
 312  605.3455
 313  611.3405
 314  592.9763
 315  488.015
 316  522.6257
 317  513.8884
 318  614.6945
 319  734.3688
 320  794.2277
 321  811.4799
 322  716.129
 323  556.0428
 324  651.2484
 325  738.9767
 326  792.2172
 327  827.4711
 328  699.9892
 329  671.9634
 330  600.4425
 331  558.386
 332  500.6579
 333  556.3608
 334  562.1482
 335  594.5923
 336  649.9441
 337  601.4672
 338  579.4029
 339  611.0954
 340  661.0829
 341  586.3011
 342  624.1138
 343  578.454
 344  575.9868
 345  595.7701
 346  599.4313
 347  684.7296
 348  693.7839
 349  606.1915
 350  642.7063
 351  537.833
 352  639.5129
 353  655.4232
 354  600.042
 355  615.0562
 356  610.5007
 357  546.3829
 358  590.9047
 359  601.7297
 360  659.5496
 361  554.7726
 362  612.781
 363  688.5818
 364  646.4151
 365  592.109
 366  710.7371
 367  594.5961
 368  589.5165
 369  594.124
 370  617.5193
 371  620.5227
 372  657.3571
 373  610.6559
 374  613.166
 375  527.7145
 376  640.9284
 377  735.4893
 378  631.5854
 379  540.4921
 380  550.9202
 381  535.847
 382  609.152
 383  496.8065
 384  535.5001
 385  711.6453
 386  745.6594
 387  576.2107
 388  592.808
 389  652.9514
 390  635.1332
 391  581.453
 392  587.8565
 393  568.666
 394  694.3981
 395  572.8928
 396  499.3713
 397  577.9874
 398  550.7617
 399  589.2188
 400  643.314
 401  596.2269
 402  557.4275
 403  614.5828
 404  697.1964
 405  583.1663
 406  668.0667
 407  698.7571
 408  633.5764
 409  524.4029
 410  529.9933
 411  678.4007
 412  677.9029
 413  655.4944
 414  625.7939
 415  539.6191
 416  575.878
 417  544.0607
 418  563.4829
 419  631.1089
 420  574.3947
 421  604.7706
 422  590.2295
 423  435.9293
 424  428.7922
 425  487.374
 426  454.1966
 427  474.3015
 428  507.7243
 429  549.9901
 430  464.9326
 431  439.5894
 432  473.8923
 433  547.0309
 434  591.5329
 435  581.1096
 436  494.7736
 437  463.8851
 438  498.8559
 439  629.1984
 440  647.2634
 441  526.3991
 442  486.5104
 443  495.8718
 444  539.4865
 445  544.5133
 446  563.817
 447  518.8073
 448  618.1969
 449  631.7329
 450  675.4735
 451  729.569
 452  674.1998
 453  613.3839
 454  552.5458
 455  609.7111
 456  694.2199
 457  699.4087
 458  645.7657
 459  558.1772
 460  627.3284
 461  634.7679
 462  657.9572
 463  679.0292
 464  642.3674
 465  635.6582
 466  569.744
 467  524.6486
 468  510.4776
 469  580.3468
 470  656.2521
 471  582.6141
 472  566.9825
 473  511.1465
 474  504.5415
 475  618.1543
 476  526.7064
 477  563.8322
 478  543.1696
 479  502.7157
 480  605.3314
 481  618.8873
 482  593.7413
 483  466.1987
 484  492.6474
 485  521.3925
 486  524.9645
 487  524.1313
 488  559.8557
 489  586.856
 490  613.0941
 491  621.9167
 492  549.6818
 493  608.0503
 494  643.8621
 495  596.7609
 496  510.879
 497  559.3067
 498  612.5806
 499  610.0713
 500  648.0292
 501  600.231
 502  646.1965
 503  704.0876
 504  627.0291
 505  630.5821
 506  707.3836
 507  715.6208
 508  739.2691
 509  872.5582
 510  961.0809
 511  1171.956
