# Input file       =  1209216790.123209_cleaned.dat
# Candidate        =  PSR_0332+5434
# Telescope        =  AR
# Epoch_topo       =  58239.564920407509
# Epoch_bary       =  N/A
# T_sample         =  0.002
# Data Folded      =  7340032
# Data Avg         =  0.310340602253356
# Data StdDev      =  5.8803940376574  
# Profile Bins     =  1024
# Profile Avg      =  2224.53834580001 
# Profile StdDev   =  497.857927510671 
# Reduced chi-sqr  =  0.605
# Prob(Noise)      <  1   (~0.0 sigma)
# P_topo (ms)      =  714.546560401417  +/- 0.000371
# P'_topo (s/s)    =  -0                +/- 1.96e-10
# P''_topo (s/s^2) =  0                 +/- 8.64e-14
# P_bary (ms)      =  N/A
# P'_bary (s/s)    =  N/A
# P''_bary (s/s^2) =  N/A
# P_orb (s)        =  N/A
# asin(i)/c (s)    =  N/A
# eccentricity     =  N/A
# w (rad)          =  N/A
# T_peri           =  N/A
######################################################
   0  2629.383
   1  2565.548
   2  2631.569
   3  2564.234
   4  2487.937
   5  2427.205
   6  2488.923
   7  2499.536
   8  2397.892
   9  2402.247
  10  2398.669
  11  2415.555
  12  2333.631
  13  2359.231
  14  2329.952
  15  2286.202
  16  2219.043
  17  2074.532
  18  1974.943
  19  1908.761
  20  1931.003
  21  1912.512
  22  1912.969
  23  2079.572
  24  2185.081
  25  2228.199
  26  2086.396
  27  2150.391
  28  2093.636
  29  2121.192
  30  2060.145
  31  2005.068
  32  2104.538
  33  2127.236
  34  2191.203
  35  2038.883
  36  2062.001
  37  1994.069
  38  2076.816
  39  2168.77
  40  2486.329
  41  2493.353
  42  2439.964
  43  2364.948
  44  2418.705
  45  2435.877
  46  2461.497
  47  2410.814
  48  2444.969
  49  2410.865
  50  2415.254
  51  2410.104
  52  2402.438
  53  2392.312
  54  2492.629
  55  2574.24
  56  2615.461
  57  2529.221
  58  2449.605
  59  2501
  60  2504.974
  61  2520.402
  62  2375.189
  63  2339.029
  64  2475.762
  65  2385.479
  66  2444.027
  67  2348.77
  68  2481.284
  69  2541.936
  70  2506.551
  71  2536.063
  72  2531.813
  73  2390.342
  74  2207.302
  75  2172.078
  76  2310.037
  77  2257.333
  78  2177.629
  79  2138.794
  80  2077.125
  81  2055.125
  82  1978.117
  83  2134.433
  84  2211.026
  85  2174.863
  86  2200.598
  87  2067.93
  88  2081.492
  89  1877.813
  90  1878.846
  91  1880.041
  92  2072.786
  93  2077.962
  94  2108.98
  95  1949.816
  96  1915.569
  97  1922.922
  98  2030.5
  99  2131.87
 100  2175.271
 101  2305.691
 102  2363.738
 103  2343.553
 104  2258.437
 105  2107.609
 106  2029.921
 107  2075.244
 108  2191.284
 109  2226.257
 110  2334.22
 111  2405.484
 112  2350.789
 113  2389.002
 114  2377.112
 115  2510.78
 116  2473.078
 117  2385.704
 118  2317.425
 119  2228.294
 120  2229.043
 121  2306.135
 122  2284.043
 123  2368.954
 124  2408.021
 125  2350.388
 126  2217.45
 127  2225.491
 128  2163.067
 129  2106.894
 130  1911.099
 131  2108.815
 132  2253.774
 133  2337.57
 134  2261.352
 135  2271.851
 136  2243.871
 137  2248.96
 138  2065.316
 139  2092.795
 140  2117.702
 141  2269.295
 142  2281.466
 143  2365.235
 144  2402.228
 145  2328.536
 146  2337.011
 147  2382.8
 148  2393.999
 149  2228.113
 150  2178.309
 151  2208.668
 152  2271.617
 153  2222.232
 154  2299.284
 155  2296.859
 156  2260.338
 157  2190.106
 158  2099.854
 159  2182.493
 160  2267.063
 161  2324.575
 162  2375.423
 163  2227.356
 164  2317.149
 165  2223.694
 166  2259.575
 167  2240.671
 168  2406.848
 169  2394.59
 170  2206.931
 171  2148.684
 172  1937.913
 173  1877.116
 174  1958.514
 175  2118.877
 176  2099.783
 177  2210.019
 178  2285.875
 179  2393.372
 180  2201.768
 181  2146.278
 182  2058.01
 183  2156.09
 184  2203.382
 185  2188.802
 186  2174.357
 187  2211.797
 188  2239.038
 189  2297.198
 190  2266.4
 191  2090.125
 192  1984.302
 193  2046.277
 194  2259.192
 195  2297.446
 196  2229.672
 197  2084.218
 198  2071.269
 199  2139.052
 200  2194.052
 201  2235.38
 202  2300.452
 203  2288.745
 204  2224.228
 205  2117.055
 206  2045.255
 207  1870.229
 208  1912.211
 209  1914.279
 210  2037.26
 211  1995.806
 212  2007.01
 213  2056.884
 214  2220.131
 215  2404.901
 216  2543.278
 217  2586.204
 218  2633.302
 219  2645.565
 220  2670.886
 221  2628.853
 222  2554.781
 223  2336.663
 224  2247.718
 225  2269.446
 226  2482.121
 227  2573.255
 228  2608.02
 229  2524.11
 230  2572.75
 231  2612.88
 232  2706.161
 233  2738.275
 234  2623.956
 235  2436.061
 236  2404.383
 237  2288.02
 238  2234.516
 239  2075.755
 240  2026.161
 241  1947.089
 242  1875.847
 243  1964.266
 244  1943.777
 245  2052.2
 246  2000.551
 247  2103.626
 248  2253.663
 249  2250.585
 250  2265.084
 251  2265.066
 252  2330.335
 253  2264.215
 254  2280.207
 255  2217.19
 256  2215.936
 257  2301.407
 258  2501.09
 259  2447.651
 260  2341.488
 261  2304.25
 262  2374.435
 263  2311.773
 264  2248.471
 265  2168.778
 266  2266.542
 267  2275.538
 268  2346.664
 269  2343.988
 270  2391.375
 271  2388.414
 272  2577.832
 273  2592.174
 274  2682.686
 275  2392.265
 276  2295.826
 277  2326.522
 278  2381.103
 279  2239.744
 280  2169.078
 281  2189.417
 282  2365.564
 283  2468.564
 284  2467.733
 285  2317.434
 286  2339.17
 287  2347.118
 288  2436.295
 289  2319.78
 290  2308.309
 291  2158.601
 292  2136.451
 293  2108.562
 294  2175.417
 295  2199.856
 296  2124.771
 297  2185.444
 298  2195.164
 299  2155.771
 300  1981.488
 301  2066.533
 302  2207.413
 303  2462.887
 304  2360.513
 305  2316.492
 306  2296.529
 307  2293.69
 308  2146.974
 309  2177.462
 310  2365.085
 311  2419.873
 312  2233.685
 313  2262.999
 314  2305.052
 315  2320.958
 316  2358.661
 317  2368.892
 318  2348.989
 319  2328.396
 320  2335.592
 321  2464.641
 322  2446.874
 323  2418.387
 324  2262.337
 325  2306.857
 326  2444.537
 327  2447.375
 328  2365.621
 329  2422.083
 330  2581.573
 331  2712.433
 332  2708.367
 333  2709.801
 334  2566.699
 335  2436.46
 336  2262.109
 337  2341.32
 338  2241.844
 339  2178.36
 340  2174.028
 341  2246.346
 342  2311.999
 343  2172.822
 344  2101.701
 345  1988.245
 346  2099.857
 347  2306.735
 348  2420.126
 349  2496.488
 350  2396.978
 351  2397.188
 352  2172.769
 353  2104.137
 354  2136.107
 355  2155.298
 356  2157.514
 357  2248.826
 358  2278.805
 359  2223.162
 360  2105.635
 361  2204.579
 362  2136.833
 363  2111.083
 364  2083.16
 365  2357.337
 366  2400.584
 367  2357.653
 368  2230.893
 369  2120.496
 370  2164.118
 371  2211.434
 372  2277.744
 373  2251.364
 374  2175.803
 375  2131.29
 376  2248.271
 377  2413.803
 378  2381.511
 379  2372.161
 380  2385.008
 381  2504.278
 382  2412.164
 383  2364.071
 384  2426.114
 385  2541.223
 386  2630.881
 387  2462.011
 388  2305.993
 389  2411.56
 390  2425.943
 391  2462.236
 392  2352.082
 393  2294.081
 394  2278.617
 395  2265.005
 396  2153.887
 397  2121.21
 398  2088.383
 399  2210.07
 400  2300.101
 401  2342.312
 402  2340.571
 403  2250.335
 404  2266.791
 405  2224.647
 406  2215.494
 407  2079.267
 408  1950.476
 409  1897.125
 410  1944.608
 411  1965.582
 412  1919.354
 413  1938.651
 414  1942.035
 415  2070.051
 416  2171.845
 417  2113.792
 418  1995.326
 419  1904.218
 420  2050.745
 421  2116.24
 422  2139.283
 423  1957.478
 424  1820.589
 425  1822.517
 426  1762.66
 427  1827.584
 428  1854.748
 429  1789.055
 430  1869.925
 431  1934.821
 432  1982.876
 433  1948.909
 434  2037.537
 435  2075.046
 436  2056.117
 437  1956.914
 438  1897.087
 439  1927.063
 440  1932.951
 441  1886.386
 442  1896.665
 443  1902.835
 444  1954.972
 445  1991.967
 446  1980.876
 447  1953.897
 448  2012.401
 449  1992.845
 450  1876.513
 451  1787.314
 452  1738.141
 453  1737.081
 454  1949.133
 455  2097.021
 456  2169.782
 457  2062.242
 458  2092.868
 459  2051.356
 460  1871.525
 461  1827.574
 462  1846.211
 463  1968.845
 464  1965.147
 465  2017.142
 466  2015.373
 467  1989.339
 468  1982.569
 469  2041.544
 470  1999.622
 471  1914.696
 472  1984.214
 473  2187.376
 474  2242.102
 475  2314.63
 476  2374.465
 477  2342.041
 478  2414.498
 479  2376.136
 480  2449.188
 481  2376.665
 482  2251.873
 483  2246.77
 484  2264.807
 485  2267.769
 486  2181.04
 487  2093.931
 488  2156.143
 489  2235.041
 490  2330.213
 491  2426.061
 492  2435.284
 493  2489.684
 494  2407.946
 495  2318.027
 496  2198.73
 497  2220.546
 498  2338.152
 499  2377.381
 500  2309.991
 501  2243.768
 502  2349.204
 503  2474.161
 504  2431.613
 505  2337.672
 506  2299.659
 507  2236.579
 508  2191.383
 509  2192.485
 510  2117.217
 511  1983.622
 512  1934.615
 513  1938.51
 514  1803.747
 515  1775.585
 516  1979.81
 517  2179.305
 518  2129.397
 519  2016.693
 520  2002.691
 521  2028.681
 522  2042.917
 523  2056.428
 524  1966.25
 525  1895.08
 526  1910.132
 527  2160.374
 528  2219.081
 529  2160.419
 530  1937.048
 531  1953.606
 532  2055.232
 533  1987.411
 534  1928.689
 535  1818.545
 536  1882.013
 537  2008.028
 538  2063.724
 539  2103.393
 540  2085.523
 541  2092.242
 542  2037.148
 543  1930.92
 544  1850.096
 545  1871.585
 546  1994.953
 547  1989.72
 548  2079.714
 549  2036.198
 550  2108.285
 551  2095.858
 552  2045.031
 553  1980.274
 554  1933.645
 555  1982.559
 556  2100.043
 557  2096.382
 558  2207.613
 559  2195.74
 560  2227.806
 561  2206.952
 562  2225.169
 563  2237.04
 564  2249.959
 565  2254.976
 566  2182.626
 567  2164.102
 568  2104.716
 569  2025.133
 570  1962.64
 571  1977.791
 572  2058.272
 573  2012.941
 574  2055.576
 575  2076.58
 576  2096.166
 577  2086.229
 578  2156.584
 579  2197.198
 580  2012.073
 581  2028.232
 582  2124.775
 583  2314.31
 584  2336.275
 585  2131.96
 586  2253.401
 587  2253.519
 588  2303.083
 589  2315.375
 590  2350.545
 591  2393.202
 592  2329.398
 593  2276.086
 594  2374.052
 595  2564.487
 596  2630.114
 597  2759.843
 598  2848.481
 599  2953.445
 600  3061.744
 601  3243.947
 602  3432.312
 603  3374.977
 604  3185.179
 605  2970.797
 606  2923.865
 607  2728.267
 608  2543.605
 609  2387.228
 610  2292.707
 611  2257.744
 612  2218.833
 613  2276.969
 614  2350.099
 615  2235.723
 616  2203.419
 617  2162.055
 618  2337.106
 619  2230.323
 620  2240.264
 621  2211.079
 622  2168.865
 623  2174.36
 624  2201.014
 625  2218.127
 626  2209.362
 627  2206.523
 628  2245.805
 629  2215.671
 630  2126.036
 631  2236.32
 632  2192.821
 633  2347.514
 634  2287.862
 635  2374.224
 636  2376.061
 637  2365.754
 638  2244.555
 639  2181.496
 640  2333.765
 641  2458.626
 642  2632.26
 643  2610.284
 644  2421.502
 645  2195.173
 646  2206.452
 647  2353.471
 648  2418.399
 649  2375.757
 650  2357.871
 651  2265.781
 652  2211.826
 653  2252.495
 654  2267.283
 655  2222.921
 656  2311.859
 657  2404.744
 658  2405.231
 659  2307.39
 660  2285.131
 661  2321.042
 662  2256.257
 663  2151.053
 664  2162.589
 665  2283.522
 666  2306.419
 667  2178.584
 668  2057.625
 669  2054.282
 670  1983.589
 671  2071.565
 672  2146.648
 673  2291.282
 674  2308.937
 675  2259.889
 676  2334.615
 677  2345.369
 678  2309.911
 679  2232.029
 680  2116.63
 681  2073.813
 682  1978.988
 683  2041.36
 684  1975.06
 685  1966.076
 686  1994.373
 687  2151.152
 688  2213.468
 689  2240.295
 690  2244.377
 691  2273.278
 692  2162.678
 693  2123.482
 694  2104.134
 695  2035.006
 696  2019.223
 697  2104.808
 698  2266.878
 699  2256.974
 700  2285.38
 701  2359.05
 702  2339.419
 703  2314.187
 704  2339.791
 705  2404.685
 706  2383.889
 707  2337.308
 708  2325.89
 709  2373.068
 710  2399.683
 711  2266.653
 712  2136.169
 713  2012.331
 714  2079.911
 715  2120.021
 716  2211.058
 717  2282.938
 718  2263.636
 719  2243.635
 720  2133.797
 721  2110.865
 722  2143.937
 723  2221.395
 724  2097.442
 725  2182.128
 726  2288.809
 727  2436.312
 728  2244.671
 729  2098.419
 730  2013.722
 731  2115.39
 732  2137.023
 733  2131.155
 734  2254.174
 735  2257.321
 736  2294.866
 737  2206.053
 738  2223.737
 739  2236.696
 740  2165.02
 741  2169.047
 742  2210.669
 743  2250.39
 744  2255.478
 745  2197.522
 746  2156.201
 747  2097.332
 748  2084.051
 749  1984.407
 750  2039.061
 751  2148.67
 752  2167.924
 753  2091.449
 754  2060.534
 755  2148.187
 756  2213.954
 757  2169.708
 758  2070.46
 759  1951.314
 760  1887.483
 761  1915.66
 762  2038.458
 763  1984.585
 764  2096.192
 765  2098.252
 766  2364.545
 767  2287.426
 768  2394.062
 769  2479.92
 770  2524.908
 771  2498.375
 772  2496.53
 773  2448.555
 774  2453.672
 775  2374.214
 776  2355.655
 777  2387.957
 778  2375.145
 779  2336.152
 780  2179.691
 781  2180.946
 782  2264.162
 783  2400.598
 784  2502.652
 785  2451.005
 786  2366.359
 787  2289.702
 788  2274.849
 789  2339.928
 790  2468.309
 791  2431.203
 792  2460.988
 793  2450.273
 794  2452.952
 795  2434.321
 796  2538.588
 797  2536.379
 798  2513.081
 799  2504.608
 800  2420.718
 801  2380.622
 802  2456.724
 803  2521.416
 804  2707.405
 805  2787.445
 806  2765.989
 807  2737.383
 808  2666.758
 809  2692.083
 810  2636.659
 811  2529.985
 812  2603.108
 813  2658.741
 814  2807.272
 815  2735.034
 816  2587.366
 817  2480.053
 818  2416.581
 819  2389.047
 820  2258.457
 821  2301.5
 822  2408.969
 823  2483.004
 824  2497.663
 825  2435.296
 826  2328.924
 827  2272.382
 828  2272.584
 829  2099.622
 830  2008.952
 831  1894.129
 832  1964.943
 833  2066.121
 834  2238.276
 835  2350.879
 836  2298.394
 837  2169.078
 838  2117.798
 839  2143.205
 840  2133.365
 841  2090.452
 842  2095.158
 843  2054.135
 844  2012.51
 845  2006.085
 846  2059.642
 847  2100.009
 848  2139.963
 849  2178.155
 850  2194.842
 851  2219.644
 852  2294.235
 853  2408.179
 854  2326.753
 855  2349.611
 856  2216.799
 857  2122.889
 858  1935.152
 859  1899.59
 860  2069.888
 861  2165.284
 862  2140.103
 863  1933.605
 864  1903.326
 865  2003.164
 866  2184.56
 867  2204.441
 868  2185.036
 869  2108.642
 870  2144.632
 871  2066.583
 872  2054.791
 873  1844.983
 874  1861.707
 875  1989.429
 876  2168.65
 877  2220.699
 878  2072.562
 879  2015.831
 880  1970.949
 881  1917.675
 882  1988.038
 883  2046.543
 884  2038.677
 885  1866.315
 886  1931.098
 887  2137.548
 888  2174.9
 889  2158.587
 890  2064.174
 891  2062.14
 892  2031.657
 893  1880.85
 894  1814.812
 895  1863.66
 896  1946.163
 897  2008.999
 898  1951.624
 899  1940.039
 900  2070.281
 901  2184.106
 902  2335.274
 903  2242.134
 904  2213.857
 905  2156.37
 906  2079.142
 907  2213.824
 908  2142.957
 909  2091.189
 910  2258.916
 911  2276.222
 912  2117.061
 913  1992.316
 914  2043.356
 915  2113.025
 916  2146.854
 917  2189.289
 918  2071.468
 919  2081.81
 920  2148.065
 921  2335.659
 922  2266.683
 923  2146.956
 924  1895.505
 925  1873.13
 926  1912.993
 927  1938.455
 928  2002.359
 929  2007.406
 930  1959.39
 931  1894.199
 932  1899.36
 933  1842.957
 934  1910.325
 935  1887.054
 936  1905.513
 937  1845.77
 938  1958.306
 939  1969.779
 940  1993.645
 941  1997.989
 942  2022.957
 943  2091.372
 944  2112.133
 945  2199.485
 946  2151.399
 947  2074.286
 948  1962.371
 949  1921.088
 950  1876.888
 951  1933.424
 952  1866.138
 953  1953.46
 954  2208.921
 955  2328.648
 956  2263.081
 957  2034.996
 958  2034.97
 959  2004.038
 960  2082.455
 961  2054.186
 962  2056.495
 963  1985.001
 964  2020.394
 965  2050.149
 966  2118.967
 967  2084.726
 968  1994.661
 969  1982.4
 970  1931.053
 971  1885.697
 972  1789.774
 973  1776.498
 974  2027.371
 975  2137.411
 976  2073.889
 977  2061.4
 978  2120.036
 979  2155.751
 980  2234.557
 981  2339.787
 982  2407.116
 983  2304.641
 984  2221.746
 985  2232.351
 986  2297.952
 987  2415.843
 988  2460.687
 989  2484.677
 990  2361.403
 991  2199.107
 992  2138.85
 993  2126.156
 994  2161.424
 995  2156.589
 996  2169.187
 997  2112.777
 998  2242.529
 999  2341.888
1000  2545.727
1001  2507.886
1002  2508.006
1003  2410.548
1004  2470.563
1005  2413.374
1006  2296.351
1007  2314.423
1008  2366.602
1009  2432.49
1010  2498.105
1011  2476.457
1012  2450.55
1013  2393.364
1014  2445.181
1015  2456.691
1016  2483.543
1017  2522.089
1018  2524.764
1019  2571.721
1020  2673.868
1021  2629.63
1022  2617.43
1023  2574.305
