# Input file       =  1209617964.103228_cleaned.dat
# Candidate        =  PSR_0332+5434
# Telescope        =  AR
# Epoch_topo       =  58244.208137768845
# Epoch_bary       =  N/A
# T_sample         =  0.002
# Data Folded      =  7208960
# Data Avg         =  0.0617766168111831
# Data StdDev      =  1.00004710327844 
# Profile Bins     =  512
# Profile Avg      =  869.812878682361 
# Profile StdDev   =  118.664765029728 
# Reduced chi-sqr  =  1.589
# Prob(Noise)      <  4.6e-16   (~8.0 sigma)
# P_topo (ms)      =  714.541963118017  +/- 4.65e-05
# P'_topo (s/s)    =  -0                +/- 2.5e-11
# P''_topo (s/s^2) =  0                 +/- 1.12e-14
# P_bary (ms)      =  N/A
# P'_bary (s/s)    =  N/A
# P''_bary (s/s^2) =  N/A
# P_orb (s)        =  N/A
# asin(i)/c (s)    =  N/A
# eccentricity     =  N/A
# w (rad)          =  N/A
# T_peri           =  N/A
######################################################
   0  971.6629
   1  890.8592
   2  827.7206
   3  741.047
   4  840.5171
   5  965.6108
   6  1027.717
   7  1033.699
   8  965.0603
   9  846.001
  10  904.7971
  11  815.2565
  12  848.5427
  13  966.1948
  14  942.2647
  15  950.3055
  16  1005.418
  17  973.7452
  18  936.6708
  19  829.8402
  20  881.61
  21  939.1916
  22  841.0873
  23  885.3835
  24  1045.389
  25  1089.398
  26  982.8359
  27  876.7357
  28  896.5544
  29  916.8024
  30  813.5817
  31  795.8994
  32  1003.536
  33  986.1262
  34  943.47
  35  862.0916
  36  923.8787
  37  1084.153
  38  1081.543
  39  968.814
  40  844.2002
  41  882.9424
  42  891.062
  43  857.3259
  44  826.7866
  45  750.8337
  46  810.5679
  47  888.8428
  48  896.9702
  49  882.3369
  50  880.0664
  51  847.2658
  52  773.859
  53  802.2332
  54  921.0618
  55  904.4109
  56  832.2724
  57  925.1674
  58  882.1112
  59  738.2852
  60  616.2145
  61  718.6934
  62  748.7119
  63  817.1769
  64  941.3859
  65  912.587
  66  873.4128
  67  851.9376
  68  897.9909
  69  847.3409
  70  781.3027
  71  819.3328
  72  858.045
  73  888.0443
  74  791.6391
  75  803.3181
  76  802.5909
  77  794.5325
  78  793.3943
  79  796.3217
  80  876.2137
  81  865.6025
  82  843.1613
  83  974.9037
  84  912.8
  85  836.8591
  86  811.6656
  87  758.6006
  88  795.387
  89  921.9623
  90  1011.672
  91  878.9977
  92  744.1
  93  703.7285
  94  746.2398
  95  843.1756
  96  829.6505
  97  904.3882
  98  864.4577
  99  892.7964
 100  856.6456
 101  896.8478
 102  936.3345
 103  844.4294
 104  906.9501
 105  1025.71
 106  1109.251
 107  1056.309
 108  965.48
 109  882.7996
 110  792.3338
 111  725.3333
 112  793.1874
 113  864.1547
 114  991.9366
 115  1007.914
 116  966.3501
 117  904.6245
 118  843.6757
 119  859.0048
 120  965.6611
 121  972.4264
 122  969.5815
 123  984.0748
 124  1089.328
 125  999.5389
 126  825.3914
 127  894.7402
 128  896.6612
 129  830.9182
 130  974.3044
 131  1102.954
 132  1069.758
 133  991.0988
 134  942.512
 135  911.5359
 136  786.3552
 137  989.6384
 138  1082.223
 139  907.7224
 140  990.358
 141  881.9666
 142  862.2113
 143  874.5847
 144  896.4868
 145  875.4096
 146  918.449
 147  937.5055
 148  909.46
 149  864.0536
 150  854.5505
 151  754.7122
 152  751.1214
 153  742.8099
 154  781.7862
 155  747.764
 156  819.5327
 157  808.4878
 158  769.0359
 159  760.4415
 160  682.1943
 161  677.0049
 162  780.1746
 163  926.3618
 164  951.0056
 165  949.6719
 166  881.5372
 167  775.8148
 168  815.9025
 169  859.4949
 170  733.6216
 171  787.1512
 172  917.8697
 173  906.581
 174  857.1136
 175  817.8948
 176  729.9449
 177  723.142
 178  715.4827
 179  838.8757
 180  860.1279
 181  946.2921
 182  990.2837
 183  937.7114
 184  723.6038
 185  784.2576
 186  761.6451
 187  818.2396
 188  843.9612
 189  777.4979
 190  707.4958
 191  849.1129
 192  868.028
 193  799.1894
 194  694.4827
 195  639.6742
 196  786.8509
 197  792.2248
 198  774.6982
 199  829.956
 200  778.164
 201  840.0417
 202  833.4144
 203  870.1411
 204  796.2504
 205  727.9244
 206  757.9208
 207  822.982
 208  690.3632
 209  852.2254
 210  774.8374
 211  614.3809
 212  705.2191
 213  908.3089
 214  1017.618
 215  941.7031
 216  878.8185
 217  890.8254
 218  797.1406
 219  826.9548
 220  892.7203
 221  879.6771
 222  826.7028
 223  886.0914
 224  782.2952
 225  801.1767
 226  809.9238
 227  715.3523
 228  743.4063
 229  900.1995
 230  1057.51
 231  992.9814
 232  837.798
 233  767.3541
 234  818.7084
 235  853.8508
 236  858.8304
 237  888.8032
 238  979.4153
 239  1004.747
 240  865.5919
 241  911.7476
 242  859.759
 243  872.0814
 244  900.5243
 245  823.0424
 246  916.2278
 247  1041.316
 248  943.3791
 249  831.2114
 250  745.4301
 251  735.0737
 252  829.1973
 253  812.4036
 254  912.5492
 255  981.3566
 256  1035.192
 257  969.8732
 258  905.2012
 259  715.4802
 260  853.2812
 261  807.688
 262  782.2709
 263  829.2111
 264  849.3406
 265  782.1123
 266  912.7446
 267  891.9315
 268  794.8484
 269  841.1666
 270  827.5497
 271  865.4164
 272  897.088
 273  896.6555
 274  804.13
 275  762.7624
 276  832.9656
 277  759.6805
 278  829.5419
 279  999.6912
 280  902.2357
 281  869.4062
 282  801.1151
 283  789.3264
 284  789.6535
 285  720.5201
 286  718.1649
 287  873.2935
 288  942.8269
 289  1013.696
 290  929.7371
 291  783.5928
 292  754.513
 293  646.7064
 294  879.506
 295  941.6
 296  839.3569
 297  931.3591
 298  943.4998
 299  921.5994
 300  749.6022
 301  784.843
 302  872.4743
 303  901.4893
 304  1064.643
 305  908.2566
 306  748.6661
 307  816.9006
 308  825.7881
 309  796.1658
 310  808.7388
 311  842.1463
 312  1010.723
 313  935.3531
 314  817.207
 315  857.794
 316  854.6914
 317  831.2693
 318  791.8543
 319  904.8021
 320  967.6472
 321  919.7059
 322  1042.861
 323  944.9547
 324  831.7108
 325  745.1512
 326  839.687
 327  844.9789
 328  863.9713
 329  931.0187
 330  956.5865
 331  946.1877
 332  810.2485
 333  750.9213
 334  766.9659
 335  814.0648
 336  863.1045
 337  963.8159
 338  917.8326
 339  708.5374
 340  670.127
 341  724.9724
 342  717.8761
 343  797.8143
 344  903.0761
 345  909.9128
 346  901.4938
 347  913.7613
 348  977.3093
 349  941.1475
 350  841.5644
 351  769.7299
 352  793.8422
 353  928.7318
 354  901.9974
 355  963.4468
 356  927.0264
 357  863.15
 358  787.828
 359  955.3754
 360  913.7129
 361  949.9014
 362  929.663
 363  970.2606
 364  962.9146
 365  906.4431
 366  892.1712
 367  909.1838
 368  834.8115
 369  905.6556
 370  911.284
 371  914.8145
 372  897.8348
 373  839.0982
 374  815.6448
 375  831.43
 376  805.4635
 377  898.9646
 378  915.7299
 379  988.7748
 380  949.2245
 381  930.4075
 382  906.7541
 383  844.4993
 384  802.835
 385  859.7791
 386  889.4445
 387  922.638
 388  800.3162
 389  701.4525
 390  700.0792
 391  777.7107
 392  815.6982
 393  822.0001
 394  829.615
 395  841.4235
 396  935.3087
 397  828.3499
 398  833.8716
 399  810.9357
 400  848.025
 401  916.1554
 402  943.5438
 403  914.1621
 404  834.1481
 405  888.8976
 406  830.9545
 407  783.8304
 408  742.7677
 409  867.4496
 410  835.8689
 411  881.5527
 412  810.3873
 413  851.6893
 414  721.2411
 415  718.9922
 416  809.3002
 417  809.9767
 418  931.4323
 419  869.496
 420  922.0386
 421  985.366
 422  826.7601
 423  711.9262
 424  690.9711
 425  769.5894
 426  722.7327
 427  731.2627
 428  825.5319
 429  978.5059
 430  831.1857
 431  737.5736
 432  696.7216
 433  688.124
 434  732.1409
 435  935.4832
 436  987.7701
 437  992.2754
 438  857.8902
 439  747.711
 440  765.4315
 441  890.9918
 442  834.0539
 443  927.9395
 444  916.8874
 445  972.7866
 446  963.8094
 447  911.2379
 448  819.1948
 449  844.4925
 450  890.6784
 451  851.0523
 452  837.8351
 453  834.5978
 454  923.0742
 455  860.1724
 456  807.6948
 457  757.8968
 458  825.163
 459  846.8226
 460  849.7866
 461  889.3008
 462  928.6049
 463  1004.943
 464  904.7118
 465  719.9426
 466  611.5384
 467  731.7388
 468  947.8311
 469  942.7505
 470  909.3007
 471  924.4548
 472  842.5681
 473  727.7759
 474  830.1653
 475  850.7448
 476  876.8607
 477  911.6352
 478  950.3588
 479  990.1104
 480  960.5062
 481  893.4163
 482  747.8784
 483  691.4961
 484  826.9509
 485  817.9573
 486  907.0599
 487  942.1697
 488  952.8054
 489  887.7756
 490  931.9017
 491  886.1075
 492  912.5826
 493  935.7578
 494  1101.045
 495  1268.196
 496  1520.247
 497  1540.727
 498  1535.504
 499  1516.471
 500  1222.858
 501  991.5042
 502  860.7856
 503  762.5178
 504  886.4571
 505  867.1207
 506  870.0022
 507  846.9965
 508  829.4996
 509  950.6205
 510  917.6044
 511  933.9166
