# Input file       =  1209216790.123209_cleaned.dat
# Candidate        =  PSR_0332+5434
# Telescope        =  AR
# Epoch_topo       =  58239.564920407509
# Epoch_bary       =  N/A
# T_sample         =  0.002
# Data Folded      =  7340032
# Data Avg         =  0.310340602253356
# Data StdDev      =  5.8803940376574  
# Profile Bins     =  512
# Profile Avg      =  4449.07669160003 
# Profile StdDev   =  704.077433220552 
# Reduced chi-sqr  =  0.678
# Prob(Noise)      <  1   (~0.0 sigma)
# P_topo (ms)      =  714.546560401417  +/- 0.000371
# P'_topo (s/s)    =  -0                +/- 1.96e-10
# P''_topo (s/s^2) =  0                 +/- 8.65e-14
# P_bary (ms)      =  N/A
# P'_bary (s/s)    =  N/A
# P''_bary (s/s^2) =  N/A
# P_orb (s)        =  N/A
# asin(i)/c (s)    =  N/A
# eccentricity     =  N/A
# w (rad)          =  N/A
# T_peri           =  N/A
######################################################
   0  3900.116
   1  3861.804
   2  3963.851
   3  4307.303
   4  3927.903
   5  4120.97
   6  4159.227
   7  3651.164
   8  3570.706
   9  3668.356
  10  3773.71
  11  3930.678
  12  4077.9
  13  4054.487
  14  3807.342
  15  3828.275
  16  3803.829
  17  3926.256
  18  3950.309
  19  4007.944
  20  3692.793
  21  3482.292
  22  3966.356
  23  4242.272
  24  4153.112
  25  3739.427
  26  3784.117
  27  3976.903
  28  4017.911
  29  4005.996
  30  3946.127
  31  4121.465
  32  4510.791
  33  4715.941
  34  4772.832
  35  4846.425
  36  4513.754
  37  4537.951
  38  4301.861
  39  4348.841
  40  4740.05
  41  4917.216
  42  4767.039
  43  4401.195
  44  4698.304
  45  4573.017
  46  4783.963
  47  4820.291
  48  4554.158
  49  4389.667
  50  4143.372
  51  3865.965
  52  3613.501
  53  4076.056
  54  4183.642
  55  4030.514
  56  4107.1
  57  3882.349
  58  3995.379
  59  4420.063
  60  3908.753
  61  4043.963
  62  3784.316
  63  3837.481
  64  4151.479
  65  4186.866
  66  4014.796
  67  3713.144
  68  3961.675
  69  4109.604
  70  4203.69
  71  4027.227
  72  3920.419
  73  4167.133
  74  4387.15
  75  4436.619
  76  4457.981
  77  4495.81
  78  4369.046
  79  4180.878
  80  3930.122
  81  4060.821
  82  4120.707
  83  4188.352
  84  4324.353
  85  4061.163
  86  4368.24
  87  4532.143
  88  4482.829
  89  4602.135
  90  4725.241
  91  4632.95
  92  4868.752
  93  5359.158
  94  5767.88
  95  6218.66
  96  6810.121
  97  6235.8
  98  5709.458
  99  4994.78
 100  4574.867
 101  4475.823
 102  4622.367
 103  4357.418
 104  4563.442
 105  4450.659
 106  4362.747
 107  4418.331
 108  4408.583
 109  4458.923
 110  4353.266
 111  4510.692
 112  4659.271
 113  4757.258
 114  4437.743
 115  4737.234
 116  5226.658
 117  4703.243
 118  4512.925
 119  4804.731
 120  4637.461
 121  4470.167
 122  4503.306
 123  4666.935
 124  4754.097
 125  4606.132
 126  4425.259
 127  4393.18
 128  4541.355
 129  4125.081
 130  4050.397
 131  4390.166
 132  4574.705
 133  4675.257
 134  4575.951
 135  4213.343
 136  4011.675
 137  3973.679
 138  4096.746
 139  4450.477
 140  4506.641
 141  4319.546
 142  4154.239
 143  4073.432
 144  4512.093
 145  4630.923
 146  4672.671
 147  4725.001
 148  4725.414
 149  4676.395
 150  4714.551
 151  4182.709
 152  4177.606
 153  4456.36
 154  4543.364
 155  4260.365
 156  4338.263
 157  4288.942
 158  4690.338
 159  4414.342
 160  4100.341
 161  4261.167
 162  4489.376
 163  4500.966
 164  4470.111
 165  4343.392
 166  4437.069
 167  4473.422
 168  4288.211
 169  4084.168
 170  4141.649
 171  4291.919
 172  4176.298
 173  4401.76
 174  4068.951
 175  3784.954
 176  4016.913
 177  4165.934
 178  4613.476
 179  4840.592
 180  5030.678
 181  4942.616
 182  4842.59
 183  4720.457
 184  4757.878
 185  4369.901
 186  4628.944
 187  4952.759
 188  4682.389
 189  4580.809
 190  4906.322
 191  4909.186
 192  4877.072
 193  5059.069
 194  5035.045
 195  4814.162
 196  4942.509
 197  5441.192
 198  5532.329
 199  5364.547
 200  5188.716
 201  5222.732
 202  5548.252
 203  5121.669
 204  4826.345
 205  4580.406
 206  4837.434
 207  4964.79
 208  4617.011
 209  4421.648
 210  3910.392
 211  4007.484
 212  4552.64
 213  4509.397
 214  4263.012
 215  4218.984
 216  4165.433
 217  4018.063
 218  4139.374
 219  4297.776
 220  4421.443
 221  4659.888
 222  4693.83
 223  4404.553
 224  3861.8
 225  4187.057
 226  4125.468
 227  3868.218
 228  4365.933
 229  4299.884
 230  4223.87
 231  3962.425
 232  3788.868
 233  4355.929
 234  4125.807
 235  3916.663
 236  4012.312
 237  3941.062
 238  3998.474
 239  4343.433
 240  4138.14
 241  3966.353
 242  3658.56
 243  3932.627
 244  3905.908
 245  4195.247
 246  4581.924
 247  4396.01
 248  4260.069
 249  4256.346
 250  4505.4
 251  4168.925
 252  4123.717
 253  4346.001
 254  4165.256
 255  4428.116
 256  4473.365
 257  3805.337
 258  3824.033
 259  4009.869
 260  3884.267
 261  3751.308
 262  3774.707
 263  3773.886
 264  3905.561
 265  3966.721
 266  4102.98
 267  4293.18
 268  4264.989
 269  3909.867
 270  3806.226
 271  3790.526
 272  4481.522
 273  4354.745
 274  4037.624
 275  4129.077
 276  4052.713
 277  4045.853
 278  4212.56
 279  3999.48
 280  3838.486
 281  3566.612
 282  4104.56
 283  4154.905
 284  4255.824
 285  4523.684
 286  4730.029
 287  4472.458
 288  4669.26
 289  4947.103
 290  4624.988
 291  4252.843
 292  4326.101
 293  4265.449
 294  4539.281
 295  5043.886
 296  4924.316
 297  4902.404
 298  4630.261
 299  4762.432
 300  4962.202
 301  4854.096
 302  4903.662
 303  4998.248
 304  5061.04
 305  5297.956
 306  5221.255
 307  5183.246
 308  5211.271
 309  4930.784
 310  4981.505
 311  4814.841
 312  4809.6
 313  4701.936
 314  4649.542
 315  4335.028
 316  3912.673
 317  3841.223
 318  3939.274
 319  4398.785
 320  4261.07
 321  4220.306
 322  4060.272
 323  4206.705
 324  4265.157
 325  4068.493
 326  4188.92
 327  4921.945
 328  4849.375
 329  4841.307
 330  4870.326
 331  4853.849
 332  4833.229
 333  4778.234
 334  5033.655
 335  5170.947
 336  4948.803
 337  5034.158
 338  4735.834
 339  4847.036
 340  4802.261
 341  4996.294
 342  5029.615
 343  4965.01
 344  4403.512
 345  4583.861
 346  4327.11
 347  4150.115
 348  4087.965
 349  4392.364
 350  4277.103
 351  4004.109
 352  3739.338
 353  4122.538
 354  4093.855
 355  3827.447
 356  4128.933
 357  4436.038
 358  4713.995
 359  4426.305
 360  4085.453
 361  4391.299
 362  4699.77
 363  4758.043
 364  4859.807
 365  4869.622
 366  4580.539
 367  4524.758
 368  4630.199
 369  4783.897
 370  4458.521
 371  4319.322
 372  3977.317
 373  4562.138
 374  4542.081
 375  4505.005
 376  4175.315
 377  4360.248
 378  4615.336
 379  4747.051
 380  4701.565
 381  4670.855
 382  4375.553
 383  4501.395
 384  4572.221
 385  4478.306
 386  4284.603
 387  4559.239
 388  4627.837
 389  4554.407
 390  4465.959
 391  4803.543
 392  4409.952
 393  3844.847
 394  4027.239
 395  4295.137
 396  4655.838
 397  4388.131
 398  4211.544
 399  4378.528
 400  4382.459
 401  4518.714
 402  4418.216
 403  4014.352
 404  4517.01
 405  4371.461
 406  4189.161
 407  4402.293
 408  4595.887
 409  4385.881
 410  3945.623
 411  3809.469
 412  4031.438
 413  4033.607
 414  4540.972
 415  5104.111
 416  5270.149
 417  5307.334
 418  4977.988
 419  4495.511
 420  4997.93
 421  5149.969
 422  5159.886
 423  5424.029
 424  5126.203
 425  4721.609
 426  4365.781
 427  4000.211
 428  3822.917
 429  3973.27
 430  4086.183
 431  4485.454
 432  4523.103
 433  4605.034
 434  4499.425
 435  4478.425
 436  4941.178
 437  4674.94
 438  4694.684
 439  4439.566
 440  4510.796
 441  4677.992
 442  4772.243
 443  5113.381
 444  5140.66
 445  4619.2
 446  4651.978
 447  4352.849
 448  4783.773
 449  4837.135
 450  4657.142
 451  4777.484
 452  4503.264
 453  4252.134
 454  4362.06
 455  4308.699
 456  4371.919
 457  4050.483
 458  4582.534
 459  4708.676
 460  4598.692
 461  4324.788
 462  4775.114
 463  4505.767
 464  4600.221
 465  4719.121
 466  4696.209
 467  4767.556
 468  4880.483
 469  4571.083
 470  4889.211
 471  4768.85
 472  5260.171
 473  5412.962
 474  5081.392
 475  4603.738
 476  4455.418
 477  4378.525
 478  4520.789
 479  4129.142
 480  4337.29
 481  4890.058
 482  4825.326
 483  4313.674
 484  4272.049
 485  4390.693
 486  4527.651
 487  4311.129
 488  4264.699
 489  4372.277
 490  4766.599
 491  4397.059
 492  4351.493
 493  4536.405
 494  4319.284
 495  4606.466
 496  4768.722
 497  4869.885
 498  4790.812
 499  4924.306
 500  5139.264
 501  4698.995
 502  4896.414
 503  4675.324
 504  4558.639
 505  4298.766
 506  4276.387
 507  4610.211
 508  4614.495
 509  4493.88
 510  4349.485
 511  3864.43
