# Input file       =  1209617964.103228_cleaned.dat
# Candidate        =  PSR_0332+5434
# Telescope        =  AR
# Epoch_topo       =  58244.208137768845
# Epoch_bary       =  N/A
# T_sample         =  0.002
# Data Folded      =  7208960
# Data Avg         =  0.0617766168111831
# Data StdDev      =  1.00004710327844 
# Profile Bins     =  512
# Profile Avg      =  869.812889750715 
# Profile StdDev   =  118.664765029728 
# Reduced chi-sqr  =  1.590
# Prob(Noise)      <  3.99e-16   (~8.1 sigma)
# P_topo (ms)      =  714.54196264424   +/- 4.67e-05
# P'_topo (s/s)    =  -0                +/- 2.51e-11
# P''_topo (s/s^2) =  0                 +/- 1.13e-14
# P_bary (ms)      =  N/A
# P'_bary (s/s)    =  N/A
# P''_bary (s/s^2) =  N/A
# P_orb (s)        =  N/A
# asin(i)/c (s)    =  N/A
# eccentricity     =  N/A
# w (rad)          =  N/A
# T_peri           =  N/A
######################################################
   0  1519.551
   1  1550.656
   2  1272.391
   3  1035.419
   4  873.1159
   5  772.6711
   6  855.284
   7  891.3724
   8  851.2241
   9  870.8373
  10  804.8627
  11  948.8583
  12  922.3528
  13  921.5156
  14  975.325
  15  895.5138
  16  851.7787
  17  739.6047
  18  817.3847
  19  958.1479
  20  1012.915
  21  1047.423
  22  971.1996
  23  858.0291
  24  893.7381
  25  836.6682
  26  842.7015
  27  942.3546
  28  961.2432
  29  925.4193
  30  1015.11
  31  966.6393
  32  961.1505
  33  833.6832
  34  862.4808
  35  948.543
  36  854.5671
  37  864.4273
  38  1017.272
  39  1097.054
  40  1004.458
  41  896.2074
  42  876.7829
  43  927.5792
  44  829.3431
  45  782.7495
  46  976.1725
  47  987.3151
  48  956.7701
  49  868.0293
  50  910.2167
  51  1053.505
  52  1097.05
  53  995.9784
  54  852.5484
  55  877.507
  56  897.6836
  57  850.4656
  58  844.8539
  59  746.3683
  60  801.5331
  61  882.3313
  62  891.9858
  63  889.6643
  64  882.3349
  65  859.5948
  66  781.1415
  67  785.6832
  68  900.1725
  69  929.7437
  70  828.7012
  71  907.3427
  72  900.0187
  73  768.5565
  74  621.8134
  75  702.6104
  76  747.2328
  77  793.9755
  78  929.2465
  79  922.5665
  80  881.5306
  81  841.8989
  82  894.1106
  83  856.4356
  84  797.7183
  85  802.9526
  86  855.3496
  87  891.4043
  88  802.793
  89  802.3718
  90  799.4909
  91  803.7507
  92  787.7061
  93  789.4775
  94  864.25
  95  877.0198
  96  833.719
  97  954.9249
  98  929.3907
  99  853.056
 100  812.4031
 101  773.4048
 102  781.0657
 103  895.0281
 104  1013.332
 105  908.6107
 106  752.9719
 107  712.1452
 108  724.321
 109  841.0997
 110  823.8079
 111  898.6956
 112  870.5107
 113  894.6824
 114  854.9053
 115  886.8958
 116  938.9665
 117  849.0746
 118  895.8013
 119  995.4555
 120  1112.414
 121  1064.353
 122  991.0779
 123  887.6466
 124  821.2775
 125  724.886
 126  778.6139
 127  840.0998
 128  988.5904
 129  994.4438
 130  994.0859
 131  895.8221
 132  863.9553
 133  840.1761
 134  958.8761
 135  966.1364
 136  981.0121
 137  952.887
 138  1093.575
 139  1028.123
 140  846.373
 141  866.8729
 142  917.5878
 143  830.7838
 144  937.7632
 145  1091.688
 146  1081.791
 147  999.1205
 148  954.9091
 149  931.4739
 150  785.7473
 151  936.6695
 152  1103.959
 153  917.2579
 154  989.2616
 155  895.7219
 156  864.3317
 157  866.7493
 158  900.3668
 159  872.7277
 160  910.8302
 161  934.7513
 162  921.4895
 163  863.238
 164  868.985
 165  764.8183
 166  749.7198
 167  749.2601
 168  768.476
 169  757.229
 170  800.3616
 171  826.1613
 172  768.3779
 173  764.2897
 174  699.1949
 175  672.1135
 176  752.6953
 177  891.8394
 178  970.7325
 179  935.4234
 180  920.6323
 181  768.6244
 182  812.0212
 183  862.0128
 184  752.8091
 185  762.592
 186  901.5203
 187  911.2969
 188  864.6685
 189  829.3141
 190  739.1843
 191  729.0763
 192  705.0214
 193  821.8031
 194  855.551
 195  925.804
 196  989.4792
 197  967.4521
 198  747.9175
 199  764.3481
 200  769.1842
 201  805.1878
 202  850.1164
 203  792.0193
 204  707.6165
 205  820.7594
 206  876.5868
 207  812.863
 208  724.7855
 209  629.1028
 210  756.8768
 211  806.4979
 212  763.6085
 213  833.0154
 214  774.7014
 215  829.3411
 216  833.3199
 217  878.3266
 218  808.9921
 219  743.9912
 220  722.0555
 221  846.5488
 222  692.0457
 223  829.5742
 224  805.5498
 225  629.0377
 226  668.4952
 227  875.1543
 228  1016.802
 229  965.2468
 230  873.639
 231  898.2014
 232  803.6708
 233  820.6304
 234  881.6623
 235  890.1776
 236  830.6212
 237  873.7835
 238  811.5717
 239  778.1518
 240  834.2822
 241  709.2259
 242  742.2544
 243  860.2307
 244  1048.009
 245  1014.333
 246  857.0946
 247  778.2543
 248  801.6646
 249  853.1646
 250  854.0665
 251  875.1097
 252  977.0943
 253  1011.648
 254  877.9156
 255  897.0532
 256  879.6279
 257  848.1977
 258  915.0048
 259  829.0554
 260  884.9516
 261  1045.3
 262  962.6136
 263  856.3083
 264  744.0886
 265  732.1537
 266  817.8997
 267  817.9836
 268  891.2601
 269  968.0402
 270  1036.068
 271  981.951
 272  933.5724
 273  722.0151
 274  824.5483
 275  830.4576
 276  788.1227
 277  813.3257
 278  853.8262
 279  770.3923
 280  890.6593
 281  918.6987
 282  798.0783
 283  835.4632
 284  827.2285
 285  858.9423
 286  895.809
 287  908.8246
 288  813.7596
 289  758.7343
 290  822.5714
 291  788.5894
 292  793.0233
 293  996.481
 294  914.3865
 295  870.2607
 296  815.1262
 297  793.9971
 298  783.4675
 299  737.3727
 300  703.9398
 301  851.6619
 302  936.1431
 303  989.7049
 304  969.0333
 305  795.8777
 306  767.2821
 307  650.2535
 308  828.7307
 309  954.5741
 310  847.4308
 311  911.5134
 312  943.3296
 313  938.6047
 314  778.2349
 315  770.9619
 316  855.2198
 317  881.0622
 318  1048.213
 319  953.0834
 320  771.7314
 321  791.7618
 322  843.4732
 323  776.0847
 324  824.2169
 325  814.5837
 326  1000.902
 327  960.6808
 328  827.089
 329  838.767
 330  868.6895
 331  832.0806
 332  786.2221
 333  885.9045
 334  965.1517
 335  922.4532
 336  1027.209
 337  973.9624
 338  840.9999
 339  749.478
 340  820.488
 341  862.0308
 342  842.4017
 343  925.9371
 344  947.8449
 345  955.0911
 346  837.5458
 347  752.7573
 348  760.8456
 349  818.966
 350  843.0651
 351  955.4338
 352  941.126
 353  745.5355
 354  664.6887
 355  714.8411
 356  716.0681
 357  774.17
 358  888.4691
 359  924.2635
 360  897.0318
 361  903.9601
 362  969.0173
 363  950.86
 364  861.1739
 365  784.1572
 366  766.7496
 367  928.3376
 368  894.7814
 369  961.4023
 370  927.4113
 371  893.4453
 372  765.3599
 373  935.0322
 374  928.3269
 375  939.7628
 376  942.3857
 377  951.1213
 378  976.9101
 379  908.5777
 380  901.6595
 381  903.5617
 382  849.8381
 383  881.9673
 384  916.1492
 385  923.629
 386  886.4627
 387  859.011
 388  803.4164
 389  853.8895
 390  798.4136
 391  888.4442
 392  899.9445
 393  987.606
 394  950.431
 395  933.355
 396  910.1736
 397  855.2441
 398  805.0063
 399  853.8224
 400  888.7199
 401  928.6041
 402  813.4643
 403  720.2668
 404  680.9631
 405  773.8892
 406  810.1835
 407  819.4893
 408  831.2489
 409  830.0355
 410  937.1318
 411  840.6715
 412  827.9402
 413  816.5134
 414  837.633
 415  906.9882
 416  943.6116
 417  920.4661
 418  837.7168
 419  893.0395
 420  839.6548
 421  793.395
 422  735.2278
 423  846.6061
 424  842.4368
 425  882.7374
 426  815.5848
 427  852.8983
 428  753.2726
 429  691.166
 430  812.5754
 431  788.3104
 432  933.228
 433  871.6213
 434  911.4467
 435  981.5345
 436  866.6226
 437  717.826
 438  690.1595
 439  756.8381
 440  739.8051
 441  723.5735
 442  788.4391
 443  980.6893
 444  848.8063
 445  766.2245
 446  681.4797
 447  708.4197
 448  702.8851
 449  901.2677
 450  993.3151
 451  979.9024
 452  907.764
 453  744.8194
 454  758.2084
 455  883.3276
 456  833.1151
 457  906.8893
 458  931.0273
 459  961.2089
 460  968.5468
 461  931.8843
 462  819.3117
 463  832.4365
 464  899.0167
 465  855.5476
 466  839.2808
 467  822.654
 468  920.2157
 469  878.7635
 470  809.1396
 471  760.5472
 472  795.4149
 473  874.334
 474  833.6682
 475  888.612
 476  909.7834
 477  1003.163
 478  935.3259
 479  751.1577
 480  608.6606
 481  700.1987
 482  921.0964
 483  963.9834
 484  900.9541
 485  928.9244
 486  862.4
 487  735.4973
 488  810.2131
 489  850.9316
 490  868.7185
 491  900.1573
 492  955.1804
 493  981.6552
 494  973.5267
 495  909.4528
 496  769.3056
 497  682.3132
 498  801.3036
 499  833.524
 500  883.7211
 501  936.7869
 502  957.6851
 503  893.8584
 504  938.8864
 505  885.2189
 506  905.8248
 507  922.3407
 508  1075.453
 509  1226.19
 510  1483.887
 511  1548.643
