# Input file       =  1210063501.123266_cleaned.dat
# Candidate        =  PSR_0332+5434
# Telescope        =  AR
# Epoch_topo       =  58249.364816241505
# Epoch_bary       =  N/A
# T_sample         =  0.002
# Data Folded      =  7340032
# Data Avg         =  0.274844938577319
# Data StdDev      =  4.0339360244247  
# Profile Bins     =  256
# Profile Avg      =  7878.07256574871 
# Profile StdDev   =  683.05865762383  
# Reduced chi-sqr  =  2.289
# Prob(Noise)      <  8.36e-28   (~10.9 sigma)
# P_topo (ms)      =  714.53710493083   +/- 0.000655
# P'_topo (s/s)    =  -0                +/- 3.45e-10
# P''_topo (s/s^2) =  0                 +/- 1.52e-13
# P_bary (ms)      =  N/A
# P'_bary (s/s)    =  N/A
# P''_bary (s/s^2) =  N/A
# P_orb (s)        =  N/A
# asin(i)/c (s)    =  N/A
# eccentricity     =  N/A
# w (rad)          =  N/A
# T_peri           =  N/A
######################################################
   0  7429.155
   1  6737.895
   2  7075.412
   3  6598.455
   4  7167.836
   5  6967.152
   6  6976.273
   7  7084.106
   8  7125.732
   9  7357.826
  10  8028.727
  11  8069.613
  12  7691.247
  13  7947.612
  14  8277.748
  15  7877.369
  16  7644.396
  17  7176.809
  18  7639.763
  19  7384.854
  20  7040.547
  21  7026.402
  22  7013.356
  23  7232.59
  24  7643.626
  25  7577.262
  26  7283.611
  27  7972.583
  28  8125.368
  29  7593.556
  30  7820.879
  31  8031.357
  32  8204.016
  33  8091.115
  34  8124.091
  35  8206.388
  36  7922.137
  37  7729.542
  38  7686.548
  39  7710.776
  40  7725.887
  41  7597.648
  42  7527.424
  43  7543.324
  44  6838.062
  45  6797.628
  46  7396.481
  47  7541.819
  48  8244.117
  49  8294.475
  50  8509.218
  51  8627.396
  52  8174.61
  53  8233.528
  54  8600.4
  55  8715.033
  56  8452.999
  57  7908.348
  58  7487.484
  59  7581.611
  60  7861.021
  61  8062.273
  62  7437.188
  63  7423.547
  64  7845.95
  65  8409.519
  66  7997.574
  67  6952.622
  68  7065.061
  69  7531.96
  70  7570.807
  71  7371.027
  72  7661.151
  73  7360.206
  74  8239.972
  75  8264.411
  76  9092.672
  77  8541.143
  78  8275.26
  79  8635.503
  80  8239.536
  81  9124.229
  82  8205.417
  83  7750.176
  84  8315.405
  85  8310.48
  86  8344.964
  87  7463.315
  88  8288.332
  89  8414.412
  90  8898.714
  91  8932.783
  92  8562.551
  93  8525.014
  94  8772.441
  95  8759.828
  96  8647.197
  97  8630.911
  98  9053.868
  99  8800.082
 100  8820.64
 101  9274.325
 102  8834.837
 103  8755.775
 104  8509.781
 105  8475.668
 106  8165.872
 107  8140.656
 108  7810.425
 109  8618.692
 110  8493.422
 111  8467.385
 112  8036.486
 113  8558.231
 114  8829.218
 115  8998.209
 116  9000.581
 117  8856.057
 118  8681.528
 119  9186.237
 120  9351.261
 121  9241.711
 122  9461.002
 123  9342.958
 124  9396.551
 125  8951.084
 126  8796.146
 127  8022.87
 128  8217.596
 129  7951.685
 130  7771.865
 131  8094.178
 132  7647.159
 133  7335.95
 134  7666.028
 135  7390.667
 136  7514.887
 137  8210.02
 138  8001.317
 139  8458.015
 140  8871.638
 141  8589.844
 142  8792.023
 143  8416.831
 144  8566.562
 145  8554.919
 146  8564.337
 147  9153.34
 148  9685.782
 149  12513.24
 150  13060.17
 151  11049.04
 152  8557.651
 153  8133.156
 154  8044.989
 155  7913.535
 156  8482.217
 157  8999.637
 158  8365.118
 159  7846.185
 160  8875.292
 161  8372.282
 162  8578.236
 163  8288.692
 164  8561.412
 165  8560.992
 166  7551.479
 167  8025.447
 168  8022.721
 169  8310.472
 170  8431.138
 171  8110.146
 172  8249.919
 173  8686.223
 174  8307.456
 175  8151.658
 176  7933.482
 177  8167.099
 178  7197.347
 179  7715.711
 180  7223.194
 181  8022.211
 182  7972.24
 183  8099.413
 184  7892.201
 185  8192.637
 186  7814.484
 187  8547.129
 188  8004.961
 189  7721.36
 190  7623.766
 191  7334.812
 192  7995.665
 193  7442.897
 194  6673.119
 195  7464.587
 196  7369.741
 197  7512.231
 198  7667.198
 199  7434.985
 200  7317.63
 201  6750.806
 202  7382.8
 203  7382.202
 204  7210.96
 205  7165.59
 206  6359.403
 207  6255.653
 208  6380.671
 209  6532.743
 210  7286.291
 211  7105.153
 212  7071.251
 213  6789.704
 214  7511.833
 215  6517.738
 216  7132.544
 217  6537.902
 218  7701.448
 219  7704.135
 220  7730.713
 221  6493.665
 222  5783.556
 223  7069.051
 224  7098.688
 225  7319.041
 226  7748.667
 227  6758.194
 228  7392.32
 229  7826.422
 230  7322.942
 231  6593.996
 232  7230.735
 233  7210.671
 234  6823.024
 235  6614.16
 236  6448.997
 237  6292.084
 238  6366.736
 239  6582.882
 240  6212.144
 241  6303.725
 242  6035.332
 243  5980.025
 244  6481.008
 245  6864.523
 246  6776.312
 247  7088.08
 248  7379.062
 249  7703.331
 250  7493.201
 251  7730.309
 252  7689.015
 253  6897.456
 254  6880.186
 255  7136.9
