# Input file       =  1210322039.121345_cleaned.dat
# Candidate        =  PSR_0332+5434
# Telescope        =  AR
# Epoch_topo       =  58252.357154182231
# Epoch_bary       =  N/A
# T_sample         =  0.002
# Data Folded      =  7340032
# Data Avg         =  0.107893688790292
# Data StdDev      =  4.7131964183068  
# Profile Bins     =  512
# Profile Avg      =  1546.68563684493 
# Profile StdDev   =  564.325318203972 
# Reduced chi-sqr  =  1.642
# Prob(Noise)      <  2.26e-18   (~8.7 sigma)
# P_topo (ms)      =  714.534217626712  +/- 0.000809
# P'_topo (s/s)    =  -0                +/- 4.27e-10
# P''_topo (s/s^2) =  0                 +/- 1.89e-13
# P_bary (ms)      =  N/A
# P'_bary (s/s)    =  N/A
# P''_bary (s/s^2) =  N/A
# P_orb (s)        =  N/A
# asin(i)/c (s)    =  N/A
# eccentricity     =  N/A
# w (rad)          =  N/A
# T_peri           =  N/A
######################################################
   0  1448.377
   1  1658.364
   2  1413.025
   3  1086.009
   4  1216.145
   5  1311.988
   6  1304.149
   7  1234.172
   8  1096.998
   9  1429.524
  10  1575.162
  11  1220.343
  12  1393.555
  13  1750.456
  14  2014.182
  15  2034.388
  16  1675.523
  17  1447.718
  18  1452.862
  19  1332.249
  20  1079.652
  21  1391.437
  22  1583.233
  23  1219.865
  24  963.4438
  25  1043.94
  26  1282.042
  27  1209.8
  28  1279.622
  29  1160.398
  30  1166.273
  31  1362.544
  32  1498.828
  33  1653.971
  34  1732.311
  35  1607.475
  36  1344.928
  37  1231.205
  38  1290.648
  39  1436.225
  40  1360.693
  41  1693.286
  42  1682.491
  43  1333.463
  44  1351.379
  45  1575.78
  46  1308.711
  47  1658.776
  48  1808.2
  49  1712.238
  50  1640.61
  51  1506.907
  52  1588.722
  53  1606.486
  54  1828.426
  55  2058.086
  56  1999.007
  57  2021.627
  58  1851.593
  59  1576.831
  60  1450.098
  61  1517.238
  62  1549.922
  63  1768.837
  64  1803.753
  65  1774.496
  66  1626.921
  67  1180.338
  68  918.1141
  69  1086.868
  70  1289.835
  71  1465.151
  72  1588.625
  73  1528.425
  74  1160.944
  75  690.7316
  76  807.5701
  77  719.0073
  78  1008.294
  79  1127.215
  80  1241.289
  81  1602.765
  82  1264.263
  83  1236.447
  84  973.7113
  85  1303.823
  86  1059.221
  87  1217.972
  88  1317.938
  89  1184.062
  90  1170.195
  91  1470.397
  92  798.9252
  93  643.8213
  94  782.3486
  95  735.1754
  96  1235.552
  97  2010.264
  98  1772.37
  99  1195.975
 100  1133.217
 101  1287.366
 102  1192.698
 103  1070.672
 104  928.4039
 105  1225.592
 106  1390.027
 107  1225.05
 108  1537.1
 109  1547.096
 110  1308.77
 111  1226.611
 112  1216.898
 113  1818.615
 114  1947.693
 115  1795.537
 116  1328.576
 117  1122.977
 118  876.276
 119  859.7269
 120  1291.506
 121  1632.151
 122  1440.729
 123  1431.143
 124  1202.67
 125  1112.49
 126  911.3514
 127  1018.672
 128  1215.765
 129  1176.947
 130  1319.084
 131  1421.258
 132  1304.38
 133  1506.807
 134  1291.945
 135  1052.609
 136  1004.668
 137  1045.985
 138  1533.659
 139  1350.984
 140  1754.541
 141  1568.622
 142  1303.099
 143  1307.159
 144  1622.332
 145  1859.806
 146  1912.025
 147  1655.44
 148  1190.754
 149  1500.884
 150  1441.988
 151  1374.164
 152  1314.438
 153  1333.985
 154  1382.98
 155  1438.089
 156  1515.014
 157  1183.188
 158  1477.946
 159  1264.58
 160  926.6085
 161  920.0345
 162  1056.489
 163  954.305
 164  957.5803
 165  1068.736
 166  1002.657
 167  679.0723
 168  619.9597
 169  259.0262
 170  875.1514
 171  1170.192
 172  1101.169
 173  762.3033
 174  618.4
 175  490.3726
 176  455.933
 177  1022.971
 178  964.7054
 179  955.8604
 180  929.8481
 181  911.8643
 182  1057.909
 183  1125.272
 184  806.6586
 185  699.6624
 186  659.0377
 187  751.3306
 188  694.1616
 189  899.4066
 190  638.119
 191  573.02
 192  406.3648
 193  516.4817
 194  681.1188
 195  699.9476
 196  915.4091
 197  924.5104
 198  896.3184
 199  1009.378
 200  998.9494
 201  1128.354
 202  940.1033
 203  1017.368
 204  938.4283
 205  1022.547
 206  1117.695
 207  1039.105
 208  1366.782
 209  1140.888
 210  1149.503
 211  907.8844
 212  859.4022
 213  979.0861
 214  1034.195
 215  944.9844
 216  1076.825
 217  1040.126
 218  934.0485
 219  1118.558
 220  1028.517
 221  947.6285
 222  1038.974
 223  702.0701
 224  1059.38
 225  789.8391
 226  823.0949
 227  992.5612
 228  1249.665
 229  1248.156
 230  1020.901
 231  997.3394
 232  1149.309
 233  1204.707
 234  1495.6
 235  1234.327
 236  1260.902
 237  1306.654
 238  1361.813
 239  1116.34
 240  978.5198
 241  1021.427
 242  718.2625
 243  753.1821
 244  765.8489
 245  1117.704
 246  1118.455
 247  1356.012
 248  1493.882
 249  1318.866
 250  1123.411
 251  1502.77
 252  1515.091
 253  1431.933
 254  1336.382
 255  1477.776
 256  1464.133
 257  1375.255
 258  1457.857
 259  1374.962
 260  1731.441
 261  1590.871
 262  1881.227
 263  1618.787
 264  1158.391
 265  1084.985
 266  1333.866
 267  1468.234
 268  1679.346
 269  1632.333
 270  1615.74
 271  1716.512
 272  1548.415
 273  1600.374
 274  1883.339
 275  2097.89
 276  1972.873
 277  2109.474
 278  2183.374
 279  2167.751
 280  2005.757
 281  2885.062
 282  3953.73
 283  4380.053
 284  4268.455
 285  3753.873
 286  3019.082
 287  2616.605
 288  2086.965
 289  1914.823
 290  1638.888
 291  1705.956
 292  1623.861
 293  1999.631
 294  2168.281
 295  2070.225
 296  2004.226
 297  2307.077
 298  2442.323
 299  2260.182
 300  2116.47
 301  1955.344
 302  1602.186
 303  1648.937
 304  1870.926
 305  1817.45
 306  1571.336
 307  1514.335
 308  1811.789
 309  1790.99
 310  1649.808
 311  2071.886
 312  2224.484
 313  2000.522
 314  2136.404
 315  1984.396
 316  2034.958
 317  2260.201
 318  2238.245
 319  2273.23
 320  2056.122
 321  1903.897
 322  1761.135
 323  1623.772
 324  1779.919
 325  1884.773
 326  1855.857
 327  1949.43
 328  1484.622
 329  1516.483
 330  1981.349
 331  1758.909
 332  1511.07
 333  1683.195
 334  1369.037
 335  1318.393
 336  1398.541
 337  1601.487
 338  1610.665
 339  1279.862
 340  1336.344
 341  1514.933
 342  1541.079
 343  1657.9
 344  1640.452
 345  1510.12
 346  1538.186
 347  1366.933
 348  1236.841
 349  1379.754
 350  1447.417
 351  1644.571
 352  1576.996
 353  1337.605
 354  1665.561
 355  1631.618
 356  1738.766
 357  1679.882
 358  1264.531
 359  1342.296
 360  1501.021
 361  1885.023
 362  1845.901
 363  1423.541
 364  1673.424
 365  1663.263
 366  1649.689
 367  1696.93
 368  1689.156
 369  1547.079
 370  1401.357
 371  1247.219
 372  1357.443
 373  1469.233
 374  1625.799
 375  1632.272
 376  1883.837
 377  2022.882
 378  1623.933
 379  1308.622
 380  1514.884
 381  1945.277
 382  1652.515
 383  1706.568
 384  1892.449
 385  1913.748
 386  1840.071
 387  2070.254
 388  1998.117
 389  2116.189
 390  2078.919
 391  1901.675
 392  1884.444
 393  1912.96
 394  2392.683
 395  2483.679
 396  2224.464
 397  2093.572
 398  2213.133
 399  2186.905
 400  2310.667
 401  2402.846
 402  2210.628
 403  2312.586
 404  2447.654
 405  2311.479
 406  2516.414
 407  2561.004
 408  2489.376
 409  2402.292
 410  2244
 411  2598.685
 412  2558.909
 413  2909.058
 414  2894.361
 415  2556.924
 416  2446.895
 417  2230.965
 418  2336.134
 419  2356.43
 420  2198.999
 421  2345.547
 422  2349.701
 423  2268.916
 424  2394.535
 425  2523.001
 426  2641.917
 427  2184.231
 428  1833.299
 429  1966.112
 430  2007.273
 431  2062.81
 432  2041.468
 433  1963.323
 434  1873.638
 435  2167.333
 436  2315.306
 437  2395.075
 438  2166.776
 439  2036.844
 440  1881.737
 441  2177.344
 442  2557.813
 443  2515.445
 444  2398.216
 445  2403.488
 446  2375.167
 447  2328.375
 448  2164.14
 449  2073.207
 450  2139.783
 451  2282.111
 452  1996.883
 453  1591.407
 454  1866.61
 455  2048.216
 456  1883.752
 457  1845.516
 458  1794.938
 459  1928.791
 460  1957.512
 461  1978.788
 462  1647.238
 463  1506.167
 464  1513.743
 465  2049.046
 466  1936.425
 467  1786.229
 468  1437.315
 469  1271.611
 470  1468.146
 471  1629.843
 472  1584.971
 473  1375.6
 474  1488.477
 475  1426.06
 476  1385.792
 477  1254.251
 478  1161.266
 479  1222.119
 480  1698.307
 481  1439.144
 482  1556.988
 483  1425.338
 484  1515.935
 485  1455.21
 486  1625.68
 487  1646.581
 488  1420.772
 489  1737.685
 490  1727.925
 491  1584.484
 492  1492.837
 493  1765.348
 494  1668.276
 495  1728.149
 496  1736.856
 497  1350.308
 498  1406.751
 499  1684.152
 500  1518.704
 501  1742.635
 502  1397.918
 503  1293.187
 504  1135.725
 505  1028.461
 506  1216.292
 507  1132.208
 508  1068.91
 509  1063.395
 510  1122.889
 511  1122.787
