# Input file       =  1210824426.118472_cleaned.dat
# Candidate        =  PSR_0332+5434
# Telescope        =  AR
# Epoch_topo       =  58258.171818500836
# Epoch_bary       =  N/A
# T_sample         =  0.002
# Data Folded      =  7143424
# Data Avg         =  0.165351387715702
# Data StdDev      =  5.23392571127538 
# Profile Bins     =  1024
# Profile Avg      =  1153.4273771191  
# Profile StdDev   =  437.150309364661 
# Reduced chi-sqr  =  1.096
# Prob(Noise)      <  0.0166   (~2.1 sigma)
# P_topo (ms)      =  714.528510945819  +/- 3.15e-05
# P'_topo (s/s)    =  -0                +/- 1.71e-11
# P''_topo (s/s^2) =  0                 +/- 7.75e-15
# P_bary (ms)      =  N/A
# P'_bary (s/s)    =  N/A
# P''_bary (s/s^2) =  N/A
# P_orb (s)        =  N/A
# asin(i)/c (s)    =  N/A
# eccentricity     =  N/A
# w (rad)          =  N/A
# T_peri           =  N/A
######################################################
   0  1133.964
   1  1285.566
   2  1255.311
   3  1150.704
   4  967.9824
   5  969.5924
   6  936.8328
   7  1021.483
   8  1015.819
   9  972.2961
  10  1092.606
  11  932.0445
  12  804.6872
  13  662.8917
  14  704.5262
  15  742.1008
  16  931.3124
  17  1158.774
  18  1296.812
  19  1341.463
  20  1277.028
  21  1197.196
  22  1106.352
  23  1227.985
  24  1204.714
  25  1332.587
  26  1155.8
  27  1124.669
  28  1036.105
  29  843.1345
  30  694.5044
  31  716.6631
  32  924.1688
  33  1012.431
  34  990.9297
  35  1030.202
  36  989.2756
  37  924.9736
  38  978.2377
  39  999.2432
  40  945.4803
  41  908.0867
  42  958.0744
  43  1162.851
  44  986.0154
  45  940.9763
  46  787.2231
  47  936.9388
  48  1031.971
  49  1165.758
  50  1281.2
  51  1129.756
  52  1178.906
  53  1147.186
  54  1220.859
  55  1325.863
  56  1390.263
  57  1477.897
  58  1381.157
  59  1106.772
  60  1050.755
  61  1056.817
  62  926.2703
  63  715.762
  64  750.2505
  65  1050.79
  66  1249.131
  67  1119.075
  68  1181.095
  69  1194.627
  70  1276.332
  71  1053.8
  72  905.8101
  73  880.7955
  74  960.2049
  75  1172.188
  76  1289.541
  77  1148.959
  78  1105.228
  79  1012.413
  80  1113.588
  81  1167.385
  82  1216.354
  83  1451.367
  84  1556.258
  85  1522.621
  86  1333.366
  87  1189.223
  88  1276.402
  89  1256.083
  90  1350.994
  91  1343.154
  92  1298.336
  93  1192.585
  94  1001.048
  95  940.5214
  96  959.0601
  97  1058.659
  98  1032.756
  99  1029.111
 100  1190.772
 101  1295.628
 102  1179.947
 103  1079.191
 104  998.7335
 105  1022.392
 106  917.5518
 107  905.6718
 108  1088.668
 109  906.6798
 110  866.4659
 111  837.5342
 112  1033.471
 113  1075.138
 114  988.9207
 115  1155.257
 116  1457.832
 117  1672.498
 118  1750.235
 119  1537.792
 120  1402.51
 121  1227.198
 122  1176.577
 123  1228.115
 124  1218.014
 125  1216.764
 126  1176.683
 127  1054.442
 128  976.4758
 129  936.4564
 130  1113.841
 131  1196.315
 132  1317.012
 133  1594.173
 134  1723.778
 135  1643.963
 136  1243.587
 137  1067.517
 138  1071.812
 139  1219.233
 140  1219.353
 141  1238.633
 142  1049.193
 143  950.9634
 144  794.4854
 145  793.8655
 146  750.8071
 147  880.9722
 148  1173.922
 149  1417.473
 150  1520.633
 151  1578.53
 152  1622.871
 153  1573.138
 154  1479.68
 155  1443.417
 156  1378.596
 157  1312.351
 158  1254.04
 159  1063.842
 160  746.5793
 161  738.5736
 162  786.2366
 163  919.1046
 164  1067.707
 165  1306.086
 166  1384.446
 167  1249.242
 168  1211.329
 169  1176.142
 170  1134.11
 171  1187.597
 172  1164.577
 173  1171.593
 174  1149.406
 175  1061.274
 176  1096.606
 177  954.2103
 178  923.7953
 179  856.2287
 180  991.6122
 181  1245.827
 182  1374.797
 183  1517.591
 184  1454.114
 185  1406.356
 186  1344.499
 187  1241.725
 188  1280.058
 189  1419.663
 190  1488.659
 191  1507.309
 192  1248.503
 193  1108.473
 194  975.3207
 195  1089.527
 196  1142.47
 197  1057.104
 198  1291.162
 199  1427.655
 200  1380.867
 201  1351.577
 202  1191.917
 203  1122.345
 204  1049.726
 205  1104.566
 206  1293.238
 207  1266.012
 208  1188.637
 209  1043.932
 210  858.6133
 211  859.1484
 212  839.7866
 213  1066.929
 214  1103.012
 215  1119.173
 216  1224.861
 217  1296.839
 218  1343.707
 219  1247.804
 220  1350.789
 221  1538.127
 222  1665.821
 223  1655.149
 224  1567.851
 225  1313.561
 226  1270.691
 227  1156.666
 228  1110.094
 229  1006.85
 230  1079.061
 231  1162.938
 232  1100.667
 233  1080.829
 234  1158.179
 235  1030.413
 236  1076.983
 237  1004.626
 238  1170.939
 239  1209.789
 240  1289.559
 241  1355.913
 242  1235.698
 243  919.2936
 244  686.9675
 245  809.7607
 246  1080.637
 247  1238.841
 248  1246.437
 249  1370.937
 250  1414.885
 251  1493.37
 252  1391.018
 253  1299.577
 254  1275.68
 255  1201.368
 256  1225.933
 257  1182.309
 258  1180.027
 259  1076.066
 260  895.4883
 261  817.9194
 262  840.4251
 263  1232.502
 264  1312.844
 265  1338.684
 266  1290.5
 267  1408.167
 268  1338.027
 269  1263.719
 270  1105.75
 271  1200.382
 272  1374.733
 273  1362.033
 274  1174.934
 275  968.7814
 276  965.9661
 277  1007.233
 278  1123.793
 279  1117.868
 280  990.2835
 281  1256.354
 282  1607.482
 283  1841.553
 284  1725.448
 285  1488.706
 286  1424.871
 287  1480.774
 288  1448.663
 289  1376.571
 290  1281.907
 291  1280.767
 292  1165.258
 293  1019.88
 294  834.777
 295  886.2164
 296  936.6473
 297  1164.783
 298  1199.229
 299  1342.212
 300  1263.889
 301  1387.021
 302  1257.954
 303  1168.03
 304  1092.756
 305  1154.933
 306  1163.142
 307  1011.03
 308  869.6684
 309  950.4072
 310  951.3676
 311  932.2085
 312  883.7529
 313  997.0504
 314  1248.637
 315  1402.368
 316  1464.304
 317  1289.542
 318  1140.639
 319  1087.909
 320  1116.649
 321  1191.51
 322  1246.615
 323  1386.796
 324  1356.273
 325  1216.637
 326  914.8865
 327  846.1182
 328  1013.764
 329  1225.378
 330  1182.474
 331  1269.582
 332  1204.254
 333  1334.622
 334  1296.767
 335  1096.005
 336  976.1766
 337  935.5506
 338  1088.333
 339  1095.769
 340  1131.75
 341  1132.593
 342  997.3112
 343  913.8878
 344  934.9036
 345  935.9217
 346  1072.069
 347  1317.335
 348  1457.673
 349  1442.046
 350  1205.546
 351  1094.896
 352  1054.332
 353  1191.972
 354  1424.808
 355  1562.995
 356  1580.479
 357  1308.185
 358  1034.53
 359  897.1387
 360  759.168
 361  944.3021
 362  1071.385
 363  1212.864
 364  1373.508
 365  1332.13
 366  1291.552
 367  1029.754
 368  965.8086
 369  1049.408
 370  1098.218
 371  1090.704
 372  991.3343
 373  851.2819
 374  1029.841
 375  944.5597
 376  1036.428
 377  966.771
 378  1140.808
 379  1320.313
 380  1512.935
 381  1561.297
 382  1587.973
 383  1526.322
 384  1582.189
 385  1452.282
 386  1482.806
 387  1359.448
 388  1418.751
 389  1528.341
 390  1447.816
 391  1299.231
 392  1254.828
 393  1165.894
 394  1063.879
 395  839.3281
 396  1035.935
 397  1244.949
 398  1417.724
 399  1378.606
 400  1401.924
 401  1328.82
 402  1438.497
 403  1315.711
 404  1297.079
 405  1263.626
 406  1345.646
 407  1315.786
 408  1009.472
 409  1031.718
 410  1050.348
 411  1334.89
 412  1380.155
 413  1241.953
 414  1204.618
 415  1167.45
 416  1401.508
 417  1393.876
 418  1413.174
 419  1437.041
 420  1517.002
 421  1504.091
 422  1289.507
 423  1106.24
 424  1171.651
 425  1187.198
 426  1098.072
 427  979.4992
 428  991.1843
 429  1251.726
 430  1322.699
 431  1395.978
 432  1285.257
 433  1147.998
 434  964.2759
 435  888.9071
 436  914.8393
 437  1007.909
 438  1042.594
 439  1240.667
 440  1019.858
 441  823.9666
 442  680.8654
 443  731.5952
 444  941.7353
 445  969.3563
 446  1116.112
 447  1264.251
 448  1493.75
 449  1632.167
 450  1310.199
 451  1140.488
 452  1096.224
 453  1340.349
 454  1443.528
 455  1341.772
 456  1171.539
 457  1026.931
 458  857.3164
 459  742.7545
 460  689.3674
 461  999.6077
 462  1244.918
 463  1362.488
 464  1205.523
 465  1086.242
 466  1018.333
 467  959.0732
 468  863.9095
 469  908.3767
 470  1089.681
 471  1326.146
 472  1385.528
 473  1108.582
 474  874.0021
 475  823.5593
 476  1006.431
 477  1199.722
 478  1190.149
 479  1252.023
 480  1268.044
 481  1324.002
 482  1454.88
 483  1382.623
 484  1335.675
 485  1232.383
 486  1397.016
 487  1451.122
 488  1387.879
 489  1346.793
 490  1314.419
 491  1256.698
 492  1142.376
 493  970.0799
 494  1026.209
 495  1118.892
 496  1170.516
 497  1231.375
 498  1203.566
 499  1238.801
 500  1000.583
 501  856.174
 502  804.9362
 503  882.5602
 504  1145.626
 505  1039.757
 506  1037.122
 507  924.3674
 508  939.2239
 509  936.3478
 510  930.1871
 511  1031.288
 512  1086.285
 513  1309.074
 514  1362.417
 515  1386.731
 516  1392.241
 517  1399.486
 518  1284.876
 519  1243.185
 520  1190.517
 521  1176.585
 522  1287.017
 523  1122.933
 524  894.7356
 525  762.7993
 526  768.5993
 527  1036.007
 528  1131.147
 529  1253.409
 530  1303.865
 531  1469.104
 532  1612.13
 533  1349.939
 534  1056.362
 535  1108.07
 536  1240.436
 537  1387.647
 538  1045.515
 539  875.0513
 540  808.3575
 541  774.4438
 542  841.431
 543  771.4652
 544  920.5502
 545  1117.195
 546  1309.749
 547  1391.851
 548  1323.281
 549  1417.769
 550  1469.516
 551  1355.386
 552  1425.937
 553  1368.942
 554  1502.988
 555  1507.203
 556  1395.89
 557  1226.974
 558  978.1545
 559  923.793
 560  953.2316
 561  994.0363
 562  1226.116
 563  1315.874
 564  1394.162
 565  1357.789
 566  1226.631
 567  1191.064
 568  1064.687
 569  1106.382
 570  1027.802
 571  946.7012
 572  997.0563
 573  897.4514
 574  855.7493
 575  764.3195
 576  874.3117
 577  973.9228
 578  1109.193
 579  1293.746
 580  1431.483
 581  1515.219
 582  1598.21
 583  1424.638
 584  1334.943
 585  1323.507
 586  1508.202
 587  1676.474
 588  1590.943
 589  1365.668
 590  1393.846
 591  1532.323
 592  1549.683
 593  1558.291
 594  1723.383
 595  2152.632
 596  2190.813
 597  2312.768
 598  2144.775
 599  2319.204
 600  2386.938
 601  2383.869
 602  2169.81
 603  1822.697
 604  1607.567
 605  1530.875
 606  1363.083
 607  1232.174
 608  1212.251
 609  1390.403
 610  1551.423
 611  1602.83
 612  1589.947
 613  1626.875
 614  1719.226
 615  1774.883
 616  1504.19
 617  1380.952
 618  1310.418
 619  1456.748
 620  1608.335
 621  1535.959
 622  1426.244
 623  1170.72
 624  1347.754
 625  1248.688
 626  1193.498
 627  1365.331
 628  1612.711
 629  1791.717
 630  1653.609
 631  1522.668
 632  1338.349
 633  1223.72
 634  1295.292
 635  1289.199
 636  1279.339
 637  1209.915
 638  1133.187
 639  932.5143
 640  859.5888
 641  764.9528
 642  940.1489
 643  1135.46
 644  1336.039
 645  1466.338
 646  1519.307
 647  1584.005
 648  1500.633
 649  1435.745
 650  1344.646
 651  1423.506
 652  1531.434
 653  1578.616
 654  1376.844
 655  1145.199
 656  917.0345
 657  781.3037
 658  767.9551
 659  860.0886
 660  1080.342
 661  1206.745
 662  1329.111
 663  1273.68
 664  1176.519
 665  1205.534
 666  1179.003
 667  1155.971
 668  1160.757
 669  1238.105
 670  1429.389
 671  1200.795
 672  745.3911
 673  535.9158
 674  489.2369
 675  744.6891
 676  835.5381
 677  1183.292
 678  1338.363
 679  1518.539
 680  1642.45
 681  1484.181
 682  1526.56
 683  1557.067
 684  1611.467
 685  1490.274
 686  1314.732
 687  1197.226
 688  1106.973
 689  901.4141
 690  889.793
 691  804.3114
 692  1068.16
 693  1173.749
 694  1337.587
 695  1413.215
 696  1275.136
 697  1204.573
 698  1233.722
 699  1287.025
 700  1245.156
 701  1198.71
 702  1102.311
 703  999.3189
 704  820.9942
 705  761.2045
 706  719.3422
 707  816.0427
 708  968.3768
 709  1029.251
 710  1082.783
 711  1024.115
 712  1174.644
 713  1377.763
 714  1414.474
 715  1374.346
 716  1388.058
 717  1389.459
 718  1463.779
 719  1521.519
 720  1600.469
 721  1279.278
 722  892.2352
 723  806.2902
 724  851.8195
 725  1002.095
 726  1023.802
 727  1015.132
 728  1155.705
 729  1142.833
 730  1152.8
 731  972.671
 732  919.0203
 733  946.7554
 734  956.994
 735  1082.836
 736  1152.284
 737  1007.5
 738  913.0781
 739  818.4276
 740  913.5941
 741  930.9415
 742  1095.07
 743  1368.446
 744  1413.502
 745  1361.144
 746  1093.094
 747  1081.48
 748  1167.655
 749  1072.391
 750  1141.026
 751  1244.737
 752  1317.849
 753  1366.166
 754  1198.416
 755  989.8538
 756  798.9534
 757  839.9719
 758  899.2127
 759  911.3723
 760  1099.206
 761  1365.937
 762  1187.909
 763  1001.999
 764  686.1606
 765  602.8328
 766  779.8575
 767  913.4069
 768  1165.789
 769  974.7893
 770  949.2914
 771  765.5927
 772  787.1943
 773  727.426
 774  674.001
 775  936.0156
 776  1089.133
 777  1228.011
 778  1287.638
 779  1251.447
 780  1012.914
 781  919.7414
 782  920.9332
 783  1064.86
 784  1048.198
 785  1162.503
 786  1190.73
 787  1069.142
 788  960.1886
 789  852.7801
 790  950.9802
 791  952.5078
 792  1110.719
 793  1354.773
 794  1447.954
 795  1268.075
 796  1124.26
 797  933.3443
 798  859.6906
 799  767.6575
 800  860.4971
 801  979.0077
 802  969.9594
 803  894.3787
 804  641.2485
 805  584.9207
 806  740.7088
 807  879.1722
 808  937.7072
 809  969.9713
 810  1052.742
 811  1150.753
 812  1294.192
 813  1451.556
 814  1440.108
 815  1259.95
 816  1152.594
 817  1153.784
 818  1183.952
 819  1131.315
 820  1012.446
 821  929.2491
 822  843.8937
 823  714.2767
 824  689.599
 825  759.0647
 826  1031.381
 827  1040.566
 828  1170.272
 829  1053.822
 830  1084.127
 831  1060.907
 832  896.7182
 833  813.6599
 834  886.9271
 835  1082.376
 836  1072.719
 837  674.9068
 838  521.3701
 839  485.7244
 840  617.4714
 841  748.3973
 842  708.7042
 843  1022.629
 844  1234.797
 845  1502.579
 846  1382.757
 847  1184.183
 848  1154.889
 849  1236.73
 850  1363.715
 851  1200.155
 852  1072.222
 853  921.6511
 854  725.2723
 855  610.6439
 856  597.5328
 857  686.5408
 858  893.1571
 859  1023.023
 860  1140.392
 861  1211.142
 862  1024.025
 863  982.8749
 864  964.3358
 865  1087.505
 866  1064.723
 867  950.1591
 868  1080.083
 869  926.5826
 870  729.4332
 871  577.6607
 872  725.9978
 873  874.0594
 874  956.0113
 875  890.1209
 876  1088.204
 877  1144.608
 878  1192.78
 879  1078.892
 880  1071.692
 881  1096.219
 882  1137.749
 883  1208.237
 884  1262.385
 885  1190.168
 886  1280.644
 887  1117.604
 888  999.765
 889  856.5063
 890  776.2101
 891  842.4733
 892  879.4282
 893  1064.328
 894  1169.712
 895  1154.84
 896  1127.444
 897  943.3154
 898  893.1108
 899  961.2564
 900  1089.248
 901  1179.687
 902  1022.916
 903  831.7533
 904  843.6898
 905  935.9142
 906  1079.341
 907  1099.574
 908  1170.685
 909  1327.123
 910  1361.269
 911  1251.885
 912  942.7993
 913  927.1187
 914  1176.749
 915  1308.258
 916  1300.403
 917  1235.015
 918  1197.431
 919  1039.961
 920  917.9496
 921  864.4877
 922  879.2884
 923  916.9283
 924  1041.011
 925  1109.22
 926  1355.861
 927  1315.902
 928  1219.196
 929  985.7655
 930  966.8024
 931  909.5126
 932  970.6721
 933  1042.016
 934  1174.128
 935  1082.388
 936  1061.245
 937  1018.578
 938  1005.12
 939  1154.269
 940  1084.362
 941  1284.191
 942  1273.452
 943  1316.244
 944  1292.577
 945  1220.938
 946  1197.269
 947  1126.85
 948  1203.638
 949  1269.101
 950  1297.53
 951  1320.278
 952  1232.977
 953  996.83
 954  1019.163
 955  861.964
 956  910.2887
 957  909.2573
 958  1176.021
 959  1363.827
 960  1275.731
 961  1266.266
 962  1073.064
 963  966.9497
 964  902.5463
 965  994.7493
 966  1154.443
 967  958.9799
 968  909.7069
 969  918.6092
 970  844.0044
 971  823.9156
 972  930.9097
 973  1248.925
 974  1459.008
 975  1464.263
 976  1419.128
 977  1232.588
 978  1262.68
 979  1383.22
 980  1427.86
 981  1237.642
 982  1090.358
 983  1248.698
 984  1378.969
 985  1297.77
 986  1051.922
 987  895.1572
 988  838.1472
 989  764.6766
 990  919.0787
 991  1117.606
 992  1176.886
 993  1084.9
 994  1094.447
 995  1110.703
 996  1084.61
 997  1072.519
 998  1092.601
 999  1017.17
1000  771.918
1001  711.6403
1002  530.1279
1003  506.389
1004  632.802
1005  764.2051
1006  1029.439
1007  1357.227
1008  1537.012
1009  1553.21
1010  1434.316
1011  1449.77
1012  1387.681
1013  1304.918
1014  1246.06
1015  1132.079
1016  1107.394
1017  924.8288
1018  707.3367
1019  651.3643
1020  664.7856
1021  820.23
1022  834.4343
1023  973.9352
