# Input file       =  1210322039.121345_cleaned.dat
# Candidate        =  PSR_0332+5434
# Telescope        =  AR
# Epoch_topo       =  58252.357154182231
# Epoch_bary       =  N/A
# T_sample         =  0.002
# Data Folded      =  7340032
# Data Avg         =  0.107893688790292
# Data StdDev      =  4.7131964183068  
# Profile Bins     =  512
# Profile Avg      =  1546.68563675723 
# Profile StdDev   =  564.325318203972 
# Reduced chi-sqr  =  1.642
# Prob(Noise)      <  2.35e-18   (~8.7 sigma)
# P_topo (ms)      =  714.534217745638  +/- 0.000809
# P'_topo (s/s)    =  -0                +/- 4.27e-10
# P''_topo (s/s^2) =  0                 +/- 1.89e-13
# P_bary (ms)      =  N/A
# P'_bary (s/s)    =  N/A
# P''_bary (s/s^2) =  N/A
# P_orb (s)        =  N/A
# asin(i)/c (s)    =  N/A
# eccentricity     =  N/A
# w (rad)          =  N/A
# T_peri           =  N/A
######################################################
   0  1745.414
   1  1418.215
   2  1321.272
   3  1745.906
   4  1455.689
   5  1776.253
   6  1403.209
   7  1334.078
   8  1145.368
   9  1052.334
  10  1196.869
  11  1135.469
  12  1073.85
  13  1047.058
  14  1139.833
  15  1114.996
  16  1372.84
  17  1655.198
  18  1464.525
  19  1139.778
  20  1159.015
  21  1335.294
  22  1271.835
  23  1289.495
  24  1070.032
  25  1383.435
  26  1592.481
  27  1268.408
  28  1321.87
  29  1679.933
  30  2008.75
  31  2035.067
  32  1787.697
  33  1434.554
  34  1443.589
  35  1371.604
  36  1119.774
  37  1288.062
  38  1604.949
  39  1270.038
  40  993.3099
  41  1011.633
  42  1262.709
  43  1231.605
  44  1268.719
  45  1175.955
  46  1143.893
  47  1332.164
  48  1491.652
  49  1615.098
  50  1730.248
  51  1643.021
  52  1385.632
  53  1238.427
  54  1263.745
  55  1445.288
  56  1340.055
  57  1645.381
  58  1726.378
  59  1369.602
  60  1331.613
  61  1554.201
  62  1339.242
  63  1560.722
  64  1839.233
  65  1732.635
  66  1641.811
  67  1538.336
  68  1559.574
  69  1595.268
  70  1775.563
  71  2072.807
  72  2007.961
  73  2022.584
  74  1895.913
  75  1604.855
  76  1435.619
  77  1527.536
  78  1534.719
  79  1728.454
  80  1793.719
  81  1798.52
  82  1653.795
  83  1271.443
  84  893.9255
  85  1074.463
  86  1234.332
  87  1474.567
  88  1557.047
  89  1561.785
  90  1242.217
  91  718.1033
  92  800.3604
  93  726.7035
  94  950.2463
  95  1117.176
  96  1217.761
  97  1590.34
  98  1305.169
  99  1232.083
 100  980.1428
 101  1278.898
 102  1106.468
 103  1169.651
 104  1329.567
 105  1181.611
 106  1189.009
 107  1423.094
 108  951.7427
 109  603.8136
 110  779.9953
 111  714.9382
 112  1108.368
 113  1943.569
 114  1890.806
 115  1230.293
 116  1119.379
 117  1260.82
 118  1207.974
 119  1121.781
 120  902.0504
 121  1169.653
 122  1422.732
 123  1210.834
 124  1515.255
 125  1555.388
 126  1337.005
 127  1236.092
 128  1184.664
 129  1717.76
 130  1969.758
 131  1825.119
 132  1399.003
 133  1160.729
 134  907.6361
 135  845.606
 136  1184.189
 137  1659.798
 138  1422.831
 139  1466.016
 140  1204.179
 141  1167.814
 142  919.1953
 143  997.3793
 144  1211.225
 145  1165.188
 146  1278.424
 147  1422.841
 148  1298.068
 149  1510.864
 150  1340.253
 151  1066.913
 152  1010.787
 153  1009.572
 154  1486.707
 155  1364.744
 156  1704.343
 157  1621.478
 158  1332.306
 159  1298.795
 160  1541.71
 161  1856.535
 162  1889.532
 163  1760.433
 164  1203.088
 165  1461.077
 166  1469.685
 167  1370.952
 168  1311.337
 169  1329.637
 170  1368.708
 171  1432.059
 172  1526.711
 173  1211.41
 174  1432.329
 175  1325.842
 176  964.5803
 177  914.8438
 178  1032.724
 179  975.3891
 180  952.2092
 181  1043.41
 182  1049.934
 183  692.9868
 184  669.4375
 185  263.7748
 186  741.5958
 187  1185.842
 188  1122.057
 189  816.9205
 190  623.0052
 191  526.3382
 192  417.3945
 193  938.2624
 194  1012.812
 195  918.2255
 196  948.8875
 197  910.5841
 198  1025.66
 199  1163.091
 200  830.2494
 201  720.4121
 202  650.9753
 203  761.8453
 204  684.2671
 205  870.5607
 206  697.9282
 207  585.813
 208  419.9835
 209  478.4996
 210  681.3709
 211  678.4073
 212  875.0092
 213  916.8366
 214  895.346
 215  993.9638
 216  1007.412
 217  1133.393
 218  960.3076
 219  1021.983
 220  934.0167
 221  985.7632
 222  1123.274
 223  1035.692
 224  1321.662
 225  1189.703
 226  1145.789
 227  952.3196
 228  850.8826
 229  966.9164
 230  1029.623
 231  952.6296
 232  1056.924
 233  1047.048
 234  933.7828
 235  1097.783
 236  1054.569
 237  945.8754
 238  1048.794
 239  715.5684
 240  1004.189
 241  884.8815
 242  767.6337
 243  995.7601
 244  1198.903
 245  1257.624
 246  1050.91
 247  980.2344
 248  1133.068
 249  1204.77
 250  1460.065
 251  1278.184
 252  1255.844
 253  1290.751
 254  1374.81
 255  1145.863
 256  991.9164
 257  1029.745
 258  758.2901
 259  732.864
 260  764.7291
 261  1064.609
 262  1117.671
 263  1309.647
 264  1486.994
 265  1391.938
 266  1091.116
 267  1473.465
 268  1509.047
 269  1419.049
 270  1368.667
 271  1438.042
 272  1513.889
 273  1348.033
 274  1476.984
 275  1341.457
 276  1718.398
 277  1620.975
 278  1819.664
 279  1700.3
 280  1188.073
 281  1080.846
 282  1296.469
 283  1444.429
 284  1664.425
 285  1652.019
 286  1602.737
 287  1703.552
 288  1585.71
 289  1552.755
 290  1858.089
 291  2084.05
 292  1980.262
 293  2063.843
 294  2185.272
 295  2187.846
 296  1994.76
 297  2705.132
 298  3810.647
 299  4372.828
 300  4291.926
 301  3888.427
 302  3092.596
 303  2687.525
 304  2133.596
 305  1944.405
 306  1678.109
 307  1695.678
 308  1625.516
 309  1921.963
 310  2179.479
 311  2068.05
 312  2030.112
 313  2218.789
 314  2472.041
 315  2280.52
 316  2139.098
 317  1991.652
 318  1643.319
 319  1611.885
 320  1857.339
 321  1839.714
 322  1606.489
 323  1491.547
 324  1796.61
 325  1781.958
 326  1656.003
 327  1988.354
 328  2275.821
 329  1996.17
 330  2129.575
 331  1977.937
 332  2012.262
 333  2244.769
 334  2245.333
 335  2291.24
 336  2089.005
 337  1908.544
 338  1782.784
 339  1659.631
 340  1733.919
 341  1870.922
 342  1868.342
 343  1955.868
 344  1585.348
 345  1423.175
 346  1963.204
 347  1832.8
 348  1493.113
 349  1676.047
 350  1411.254
 351  1334.138
 352  1337.754
 353  1585.366
 354  1647.518
 355  1322.329
 356  1302.345
 357  1498.649
 358  1530.41
 359  1660.003
 360  1635.858
 361  1544.259
 362  1513.107
 363  1430.391
 364  1216.494
 365  1380.706
 366  1414.315
 367  1617.414
 368  1607.479
 369  1354.917
 370  1603.809
 371  1668.27
 372  1702.419
 373  1725.282
 374  1303.514
 375  1308.04
 376  1463.728
 377  1835.799
 378  1916.719
 379  1432.619
 380  1645.526
 381  1651.934
 382  1674.816
 383  1658.761
 384  1722.871
 385  1541.864
 386  1461.905
 387  1239.658
 388  1333.391
 389  1441.158
 390  1617.284
 391  1622.612
 392  1834.448
 393  2055.183
 394  1678.507
 395  1360.998
 396  1408.567
 397  1951.069
 398  1677.113
 399  1668.07
 400  1879.984
 401  1944.423
 402  1814.201
 403  2045.817
 404  1979.31
 405  2122.204
 406  2100.817
 407  1922.847
 408  1899.819
 409  1875.722
 410  2329.05
 411  2493.511
 412  2284.439
 413  2046.681
 414  2255.577
 415  2136.356
 416  2287.651
 417  2422.071
 418  2257.823
 419  2275.845
 420  2436.999
 421  2314.395
 422  2495.575
 423  2565.915
 424  2483.543
 425  2461.158
 426  2191.879
 427  2583.163
 428  2541.075
 429  2846.476
 430  2954.903
 431  2580.243
 432  2487.279
 433  2228.667
 434  2310.146
 435  2377.847
 436  2200.022
 437  2348.11
 438  2339.062
 439  2284.104
 440  2367.606
 441  2491.424
 442  2656.862
 443  2300.061
 444  1817.63
 445  1948.536
 446  1998.619
 447  2054.562
 448  2048.328
 449  1983.521
 450  1875.663
 451  2100.505
 452  2307.591
 453  2403.944
 454  2197.327
 455  2061.212
 456  1877.447
 457  2122.103
 458  2517.081
 459  2570.23
 460  2364.612
 461  2426.192
 462  2348.827
 463  2385.989
 464  2161.212
 465  2101.883
 466  2101.273
 467  2298.501
 468  2041.675
 469  1635.647
 470  1808.165
 471  2019.603
 472  1938.594
 473  1833.104
 474  1819.429
 475  1883.706
 476  1953.034
 477  1997.264
 478  1683.185
 479  1539.675
 480  1468.308
 481  2002.557
 482  1971.204
 483  1782.443
 484  1523.206
 485  1255.213
 486  1449.522
 487  1607.375
 488  1609.656
 489  1391.292
 490  1441.669
 491  1493.391
 492  1386.079
 493  1278.567
 494  1160.309
 495  1167.186
 496  1681.652
 497  1446.806
 498  1554.979
 499  1429.048
 500  1521.892
 501  1441.162
 502  1611.064
 503  1656.511
 504  1443.473
 505  1688.282
 506  1745.884
 507  1628.277
 508  1452.129
 509  1742.146
 510  1670.266
 511  1740.833
