# Input file       =  1211083018.094698_cleaned.dat
# Candidate        =  PSR_0332+5434
# Telescope        =  AR
# Epoch_topo       =  58261.164781188636
# Epoch_bary       =  N/A
# T_sample         =  0.002
# Data Folded      =  7405568
# Data Avg         =  0.295796998475671
# Data StdDev      =  11.1305597210198 
# Profile Bins     =  256
# Profile Avg      =  8556.9758211195  
# Profile StdDev   =  1893.11156498867 
# Reduced chi-sqr  =  0.874
# Prob(Noise)      <  0.928   (~0.0 sigma)
# P_topo (ms)      =  714.525568718198  +/- 0.000114
# P'_topo (s/s)    =  -0                +/- 5.94e-11
# P''_topo (s/s^2) =  0                 +/- 2.6e-14
# P_bary (ms)      =  N/A
# P'_bary (s/s)    =  N/A
# P''_bary (s/s^2) =  N/A
# P_orb (s)        =  N/A
# asin(i)/c (s)    =  N/A
# eccentricity     =  N/A
# w (rad)          =  N/A
# T_peri           =  N/A
######################################################
   0  10955.76
   1  9574.402
   2  10085
   3  8551.758
   4  7862.457
   5  8004.687
   6  9636.998
   7  8300.47
   8  9413.974
   9  11592.75
  10  9546.218
  11  9032.68
  12  9075.496
  13  8295.7
  14  10447.61
  15  10273.28
  16  10961.25
  17  10459.85
  18  7955.012
  19  7301.25
  20  9421.843
  21  10841.71
  22  8063.84
  23  8727.242
  24  8257.387
  25  8122.796
  26  8673.416
  27  9538.481
  28  6366.581
  29  9106.987
  30  9236.448
  31  6456.301
  32  6534.406
  33  8123.333
  34  7414.696
  35  9190.073
  36  10181.41
  37  10738.61
  38  10835.41
  39  7772.641
  40  8471.764
  41  8040.307
  42  10140.17
  43  10489.81
  44  8065.751
  45  9839.995
  46  8479.153
  47  6765.949
  48  7668.853
  49  10296.26
  50  8415.021
  51  8502.583
  52  10237.16
  53  8113.869
  54  8845.171
  55  9516.146
  56  7526.167
  57  8507.469
  58  7339.681
  59  8803.353
  60  7743.279
  61  7615.246
  62  6927.42
  63  4312.621
  64  8190.602
  65  7156.381
  66  7727.338
  67  8869.306
  68  9960.245
  69  8872.555
  70  10899.68
  71  10322.42
  72  9617.978
  73  7371.216
  74  8483.946
  75  9590.185
  76  8577.654
  77  9659.111
  78  8553.077
  79  7294.117
  80  8855.673
  81  8220.887
  82  8264.603
  83  6555.145
  84  6010.225
  85  7730.96
  86  5498.324
  87  5146.935
  88  7068.454
  89  5718.88
  90  8256.644
  91  7697.443
  92  7929.923
  93  7842.527
  94  7245.529
  95  8297.459
  96  7289.228
  97  6980.658
  98  5208.846
  99  8280.878
 100  8891.267
 101  9459.756
 102  8802.753
 103  7215.556
 104  7978.294
 105  6361.666
 106  8293.482
 107  6848.651
 108  6231.667
 109  6974.774
 110  4435.363
 111  9026.341
 112  7822.874
 113  7677.414
 114  8232.172
 115  6841.751
 116  5956.642
 117  8704.521
 118  11365.81
 119  7298.267
 120  8773.647
 121  9905.766
 122  6700.54
 123  8278.679
 124  6687.548
 125  5990
 126  7033.588
 127  8614.78
 128  9262.732
 129  8541.353
 130  8356.445
 131  8252.353
 132  6544.68
 133  6641.403
 134  7248.537
 135  9989.274
 136  7643.172
 137  7183.012
 138  7567.262
 139  9955.444
 140  8693.317
 141  6839.349
 142  9823.917
 143  7447.95
 144  9348.606
 145  10103.6
 146  9529.353
 147  7631.083
 148  10333.69
 149  13692.02
 150  14248.61
 151  9957.416
 152  7721.588
 153  7829.912
 154  10991.88
 155  9536.354
 156  9545.15
 157  10344.56
 158  11366.25
 159  9774.548
 160  9802.539
 161  10667.03
 162  10236.42
 163  10163.75
 164  10009.26
 165  9710.194
 166  7199.174
 167  8534.468
 168  9068.469
 169  10662.8
 170  9887.329
 171  6258.993
 172  6869.386
 173  8809.813
 174  9341.634
 175  8973.653
 176  10813.88
 177  10079.02
 178  10259.61
 179  8447.331
 180  6298.103
 181  6943.58
 182  8186.342
 183  8436.013
 184  8125.748
 185  7993.343
 186  6564.842
 187  8307.898
 188  8160.773
 189  7710.535
 190  10965.3
 191  8193.963
 192  7936.86
 193  9980.694
 194  6561.893
 195  7191.363
 196  6427.606
 197  6721.438
 198  8375.975
 199  7126.049
 200  7348.563
 201  9102.409
 202  8334.347
 203  7862.221
 204  6979.664
 205  8052.268
 206  6360.039
 207  9898.964
 208  10110.3
 209  8230.293
 210  8596.643
 211  10943.26
 212  7706.472
 213  8349.74
 214  8710.306
 215  10735.98
 216  6625.51
 217  5885.79
 218  9264.394
 219  7052.071
 220  9513.473
 221  9670.05
 222  7091.445
 223  10431.31
 224  9063.76
 225  11503.24
 226  9883.138
 227  8741.931
 228  7765.428
 229  8524.296
 230  7947.206
 231  5987.772
 232  8673.869
 233  9520.4
 234  7829.007
 235  7867.244
 236  9874.441
 237  9380.199
 238  5901.207
 239  8706.99
 240  8971.592
 241  5521.34
 242  8252.341
 243  9423.854
 244  7462.293
 245  10182.18
 246  10941.35
 247  10177.72
 248  9293.189
 249  9505.585
 250  10809.73
 251  11724.06
 252  9797.411
 253  9521.928
 254  10019.9
 255  11765.84
