# Input file       =  1211083018.094698_cleaned.dat
# Candidate        =  PSR_0332+5434
# Telescope        =  AR
# Epoch_topo       =  58261.164781188636
# Epoch_bary       =  N/A
# T_sample         =  0.002
# Data Folded      =  7405568
# Data Avg         =  0.295796998475671
# Data StdDev      =  11.1305597210198 
# Profile Bins     =  512
# Profile Avg      =  4278.48791063898 
# Profile StdDev   =  1338.63202514617 
# Reduced chi-sqr  =  0.767
# Prob(Noise)      <  1   (~0.0 sigma)
# P_topo (ms)      =  714.525568661565  +/- 9.57e-05
# P'_topo (s/s)    =  -0                +/- 5e-11
# P''_topo (s/s^2) =  0                 +/- 2.19e-14
# P_bary (ms)      =  N/A
# P'_bary (s/s)    =  N/A
# P''_bary (s/s^2) =  N/A
# P_orb (s)        =  N/A
# asin(i)/c (s)    =  N/A
# eccentricity     =  N/A
# w (rad)          =  N/A
# T_peri           =  N/A
######################################################
   0  5967.431
   1  4785.119
   2  4466.78
   3  3834.868
   4  5535.217
   5  4861.896
   6  3698.315
   7  3396.417
   8  5383.982
   9  5659.594
  10  4593.601
  11  5108.651
  12  5253.2
  13  5597.04
  14  5435.912
  15  5246.822
  16  5174.991
  17  4241.375
  18  3322.696
  19  3491.311
  20  3933.251
  21  4500.45
  22  5153.586
  23  5365.8
  24  5412.673
  25  4149.995
  26  3669.66
  27  4285.056
  28  4602.612
  29  3937.526
  30  4337.132
  31  4090.8
  32  3885.342
  33  4373.831
  34  4470.601
  35  4943.71
  36  4441.001
  37  3446.077
  38  2727.375
  39  4167.373
  40  5265.363
  41  4690.748
  42  4449.42
  43  3192.555
  44  3077.582
  45  3093.308
  46  3600.512
  47  4175.426
  48  3902.175
  49  3332.379
  50  4274.534
  51  4855.701
  52  4232.344
  53  5159.9
  54  5207.227
  55  4945.869
  56  6122.729
  57  5904.188
  58  4165.45
  59  3163.99
  60  5021.495
  61  4483.479
  62  3780.993
  63  4249.06
  64  3876.659
  65  4889.648
  66  5566.194
  67  5378.957
  68  4763.612
  69  3829.02
  70  4286.883
  71  4811.505
  72  5014.64
  73  4138.664
  74  4145.888
  75  2889.313
  76  3944.891
  77  3363.871
  78  4431.459
  79  4947.644
  80  5546.579
  81  4944.485
  82  2983.793
  83  4200.775
  84  4634.562
  85  5144.404
  86  5194.431
  87  4195.172
  88  3673.972
  89  4558.432
  90  4408.633
  91  4821.195
  92  4597.945
  93  3551.281
  94  3997.12
  95  4254.417
  96  4196.936
  97  3569.342
  98  3802.792
  99  4270.012
 100  4651.454
 101  4092.634
 102  3379.548
 103  3845.698
 104  3905.537
 105  3988.786
 106  2611.077
 107  2182.572
 108  2348.214
 109  4034.184
 110  4325.497
 111  3788.727
 112  3244.787
 113  3600.376
 114  4260.083
 115  4446.316
 116  4464.202
 117  4894.383
 118  5126.84
 119  4194.621
 120  4652.531
 121  5442.181
 122  5541.597
 123  4919.499
 124  5463.224
 125  4736.607
 126  4703.918
 127  3741.812
 128  3513.897
 129  3806.157
 130  4927.615
 131  5359.493
 132  3707.951
 133  3243.906
 134  5920.009
 135  4787.995
 136  4663.343
 137  4372.679
 138  4068.414
 139  3637.393
 140  3636.962
 141  4584.14
 142  4333.91
 143  3958.704
 144  4299.697
 145  4279.977
 146  3744.03
 147  3156.844
 148  3273.498
 149  2516.495
 150  3687.669
 151  3741.479
 152  3914.159
 153  2877.669
 154  2372.987
 155  2834.434
 156  2385.15
 157  3588.432
 158  3692.37
 159  2647.931
 160  3034.283
 161  4373.135
 162  3908.664
 163  3660.995
 164  4250.874
 165  3742.372
 166  4196.941
 167  4207.16
 168  3465.609
 169  3551.743
 170  3777.752
 171  4038.335
 172  4235.182
 173  3726.714
 174  3562.176
 175  3529.12
 176  3313.153
 177  2240.939
 178  3071.479
 179  4058.224
 180  4387.093
 181  4468.817
 182  4529.57
 183  4713.957
 184  4498.225
 185  4239.066
 186  4621.638
 187  3588.482
 188  3652.688
 189  4180.069
 190  3610.736
 191  3447.501
 192  2971.438
 193  4553.824
 194  3677.709
 195  3351.491
 196  3561.002
 197  2807.707
 198  3682.558
 199  4099.989
 200  2451.067
 201  1770.205
 202  3004.02
 203  4708.919
 204  4200.771
 205  4070.87
 206  3734.925
 207  3744.303
 208  3992.431
 209  4125.733
 210  4079.574
 211  3414.417
 212  3410.82
 213  3395.531
 214  2308.909
 215  4382.578
 216  4769.746
 217  6052.592
 218  5237.841
 219  3670.073
 220  3582.669
 221  4158.504
 222  4818.313
 223  5140.689
 224  4621.535
 225  3491.177
 226  3048.777
 227  4363.033
 228  3934.676
 229  3433.864
 230  3197.184
 231  2810.822
 232  3259.25
 233  3459.911
 234  3663.378
 235  4125.171
 236  4568.475
 237  4832.549
 238  4304.478
 239  4569.201
 240  3785.727
 241  3809.417
 242  4933.517
 243  4398.585
 244  3524.204
 245  3293.458
 246  3179.227
 247  3277.89
 248  3364.118
 249  3490.744
 250  3961.953
 251  5386.296
 252  4599.269
 253  3637.669
 254  4121.633
 255  4371.972
 256  2320.255
 257  3022.539
 258  5265.944
 259  5095.242
 260  4519.483
 261  4414.818
 262  4286.66
 263  2820.037
 264  4143.834
 265  5347.175
 266  4102.2
 267  3389.211
 268  4392.127
 269  4482.432
 270  4950.936
 271  5197.137
 272  4730.299
 273  4479.728
 274  5141.784
 275  3890.385
 276  3641.679
 277  4724.463
 278  6124.875
 279  6926.177
 280  6789.938
 281  7842.449
 282  6004.337
 283  5329.298
 284  4353.059
 285  3682.193
 286  3972.048
 287  3139.969
 288  5220.586
 289  5865.772
 290  4956.413
 291  4775.035
 292  4709.3
 293  5008.55
 294  4445.332
 295  5077.529
 296  5547.189
 297  6085.604
 298  5224.933
 299  4853.894
 300  4745.127
 301  4520.861
 302  5508.467
 303  5323.33
 304  5197.113
 305  5001.607
 306  5472.756
 307  5122.515
 308  4790.246
 309  4729.114
 310  5397.051
 311  4799.768
 312  4592.05
 313  3317.318
 314  3871.017
 315  3793.886
 316  4914.502
 317  4129.182
 318  5129.188
 319  5148.027
 320  5519.683
 321  5317.626
 322  4090.849
 323  2954.526
 324  3362.682
 325  3289.891
 326  3652.635
 327  4395.934
 328  4627.63
 329  4529.658
 330  4731.552
 331  3826.819
 332  5349.211
 333  5171.724
 334  5682.346
 335  4873.012
 336  5202.908
 337  5455.673
 338  4488.548
 339  4290.615
 340  3984.638
 341  3239.019
 342  3055.432
 343  3451.784
 344  3631.625
 345  4286.671
 346  3971.489
 347  4412.931
 348  3974.294
 349  4015.258
 350  4018.754
 351  3837.113
 352  4208.346
 353  3024.813
 354  3603.001
 355  4310.268
 356  3892.372
 357  4281.776
 358  3734.062
 359  3101.728
 360  5148.179
 361  5218.298
 362  5682.006
 363  4184.576
 364  3778.205
 365  3981.121
 366  4027.44
 367  5349.768
 368  4464.191
 369  3001.526
 370  3553.157
 371  3335.031
 372  3900.584
 373  3360.043
 374  2848.311
 375  2899.354
 376  4199.67
 377  4537.559
 378  3827.364
 379  3606.058
 380  3351.69
 381  3508.839
 382  3873.697
 383  4297.279
 384  4962.084
 385  3959.883
 386  4300.291
 387  3840.369
 388  3990.411
 389  3481.339
 390  3421.457
 391  4003.624
 392  3959.125
 393  2719.26
 394  3787.594
 395  4821.739
 396  5322.389
 397  5680.799
 398  4099.643
 399  3835.185
 400  4468.882
 401  3879.044
 402  4967.737
 403  5511.109
 404  5384.153
 405  4049.64
 406  3247.949
 407  3982.608
 408  4582.294
 409  4023.92
 410  4945.771
 411  5588.754
 412  4959.216
 413  3577.814
 414  2643.363
 415  2491.835
 416  3878.348
 417  4839.54
 418  4293.007
 419  3736.417
 420  3139.796
 421  4482.233
 422  5405.545
 423  4630.679
 424  5018.717
 425  3660.993
 426  3146.694
 427  4932.984
 428  5785.497
 429  4367.474
 430  4647.719
 431  5424.748
 432  6129.146
 433  4780.786
 434  5071.886
 435  4716.186
 436  3707.778
 437  3609.011
 438  4522.336
 439  4544.392
 440  3742.765
 441  4164.41
 442  3631.035
 443  3007.318
 444  2975.237
 445  4476.538
 446  4455.407
 447  5057.092
 448  4422.549
 449  3771.43
 450  4046.222
 451  3656.973
 452  4387.167
 453  5027.07
 454  4843.184
 455  5120.982
 456  3897.891
 457  2580.81
 458  3458.998
 459  4129.026
 460  4778.724
 461  5108.392
 462  3324.238
 463  2883.25
 464  2787.424
 465  4108.2
 466  4425.211
 467  4842.905
 468  4606.761
 469  3624.731
 470  3807.067
 471  4932.005
 472  5525.983
 473  5749.459
 474  4974.322
 475  4546.847
 476  5835.814
 477  4624.137
 478  4265.071
 479  4381.84
 480  5414.354
 481  5136.853
 482  5898.895
 483  6237.262
 484  5202.309
 485  4771.72
 486  5279.428
 487  5104.199
 488  4088.052
 489  4614.65
 490  5837.993
 491  5754.219
 492  5876.461
 493  5435.205
 494  5490.947
 495  4759.943
 496  4591.351
 497  4645.388
 498  5547.784
 499  4413.925
 500  3868.521
 501  3686.583
 502  4260.977
 503  4470.065
 504  3340.51
 505  4760.479
 506  5191.759
 507  4343.682
 508  3754.723
 509  4349.43
 510  5410.961
 511  5646.698
