# Input file       =  1211457068.105972_cleaned.dat
# Candidate        =  PSR_0332+5434
# Telescope        =  AR
# Epoch_topo       =  58265.494063726532
# Epoch_bary       =  N/A
# T_sample         =  0.002
# Data Folded      =  7340032
# Data Avg         =  0.247680441871386
# Data StdDev      =  5.04719298581624 
# Profile Bins     =  1024
# Profile Avg      =  1775.39433933149 
# Profile StdDev   =  427.315758701418 
# Reduced chi-sqr  =  0.814
# Prob(Noise)      <  1   (~0.0 sigma)
# P_topo (ms)      =  714.521675372993  +/- 0.000486
# P'_topo (s/s)    =  -0                +/- 2.56e-10
# P''_topo (s/s^2) =  0                 +/- 1.13e-13
# P_bary (ms)      =  N/A
# P'_bary (s/s)    =  N/A
# P''_bary (s/s^2) =  N/A
# P_orb (s)        =  N/A
# asin(i)/c (s)    =  N/A
# eccentricity     =  N/A
# w (rad)          =  N/A
# T_peri           =  N/A
######################################################
   0  1760.531
   1  1851.002
   2  1655.225
   3  1604.291
   4  1724.665
   5  1796.291
   6  1807.67
   7  1836.177
   8  1954.385
   9  2147.817
  10  2119.351
  11  2023.504
  12  1846.337
  13  1983.748
  14  2064.206
  15  2054.585
  16  2027.839
  17  1973.883
  18  2067.989
  19  2045.909
  20  2144.158
  21  1976.015
  22  1976.837
  23  2034.104
  24  2171.537
  25  2181.016
  26  2199.191
  27  2224.608
  28  2154.186
  29  2004.615
  30  1953.334
  31  1953.936
  32  2012.325
  33  2045.849
  34  1940.562
  35  2083.379
  36  2057.569
  37  2097.438
  38  2008.016
  39  2004.792
  40  1984.969
  41  2025.612
  42  2064.495
  43  2126.235
  44  2211.634
  45  2336.735
  46  2360.697
  47  2303.636
  48  2183.269
  49  2135.798
  50  2176.122
  51  2064.676
  52  2006.225
  53  2063.031
  54  2260.683
  55  2176.336
  56  2140.365
  57  2014.38
  58  1934.221
  59  1894.007
  60  1907.461
  61  1967.694
  62  2079.373
  63  2146.163
  64  1989.522
  65  1963.123
  66  2060.284
  67  2259.945
  68  2279.823
  69  2221.059
  70  2129.84
  71  2113.464
  72  2056.482
  73  1994.215
  74  1941.216
  75  1939.404
  76  1926.841
  77  2017.363
  78  2043.24
  79  1902.448
  80  1755.151
  81  1791.059
  82  1884.46
  83  1964.032
  84  2127.151
  85  2100.615
  86  2107.613
  87  2057.882
  88  2062.575
  89  1908.839
  90  1812.116
  91  1754.35
  92  1781.615
  93  1733.081
  94  1734.063
  95  1784.191
  96  1866.688
  97  1838.028
  98  1895.849
  99  1840.79
 100  1970.5
 101  1953.771
 102  1988.239
 103  2011.483
 104  1999.338
 105  2088.382
 106  1981.896
 107  1913.893
 108  1815.069
 109  1807.044
 110  1778.468
 111  1749.129
 112  1735.757
 113  1721.124
 114  1687.013
 115  1676.865
 116  1654.213
 117  1631.342
 118  1633.678
 119  1657.886
 120  1694.313
 121  1651.283
 122  1695.954
 123  1721.592
 124  1681.747
 125  1637.927
 126  1485.102
 127  1498.917
 128  1549.624
 129  1577.149
 130  1533.337
 131  1562.209
 132  1575.054
 133  1517.889
 134  1525.389
 135  1602.081
 136  1617.708
 137  1530.602
 138  1511.32
 139  1633.877
 140  1635.487
 141  1675.026
 142  1559.742
 143  1562.581
 144  1502.754
 145  1443.674
 146  1434.944
 147  1464.74
 148  1505.69
 149  1427.061
 150  1405.566
 151  1290.021
 152  1275.438
 153  1343.479
 154  1453.947
 155  1306.249
 156  1205.677
 157  1203.985
 158  1210.308
 159  1292.547
 160  1295.554
 161  1485.44
 162  1510.938
 163  1494.321
 164  1374.709
 165  1458.215
 166  1549.759
 167  1412.399
 168  1231.657
 169  1268.473
 170  1356.13
 171  1440.35
 172  1426.789
 173  1445.525
 174  1472.903
 175  1562.078
 176  1591.374
 177  1548.678
 178  1504.988
 179  1580.656
 180  1618.335
 181  1671.476
 182  1610.375
 183  1618.84
 184  1613.74
 185  1699.342
 186  1716.807
 187  1780.006
 188  1653.412
 189  1629.255
 190  1685.533
 191  1765.006
 192  1749.179
 193  1618.761
 194  1640.293
 195  1636.797
 196  1691.612
 197  1527.126
 198  1324.001
 199  1293.484
 200  1245.707
 201  1460.514
 202  1566.907
 203  1602.335
 204  1582.804
 205  1670.358
 206  1725.454
 207  1639.997
 208  1649.278
 209  1607.503
 210  1713.599
 211  1791.283
 212  1851.935
 213  1780.668
 214  1778.676
 215  1859.227
 216  1936.24
 217  1879.186
 218  1835.197
 219  1712.681
 220  1723.862
 221  1675.111
 222  1710.683
 223  1762.873
 224  1835.221
 225  1803.242
 226  1872.829
 227  1857.606
 228  1798.642
 229  1733.11
 230  1696.165
 231  1761.884
 232  1767.208
 233  1689.213
 234  1742.597
 235  1838.765
 236  1799.046
 237  1616.65
 238  1635.413
 239  1821.193
 240  1852.413
 241  1820.792
 242  1903.568
 243  1845.374
 244  1822.392
 245  1675.219
 246  1814.951
 247  1853.557
 248  1790.927
 249  1677.191
 250  1561.568
 251  1474.995
 252  1517.381
 253  1774.972
 254  1930.679
 255  1894.55
 256  1794.694
 257  1809.869
 258  1730.04
 259  1776.957
 260  1730.903
 261  1803.106
 262  1777.508
 263  1869.55
 264  1877.886
 265  1951.471
 266  1974.361
 267  1989.821
 268  2052.585
 269  1930.092
 270  1779.694
 271  1730.304
 272  1831.027
 273  1978.615
 274  1969.663
 275  1958.47
 276  1841.128
 277  1838.306
 278  1814.565
 279  1941.217
 280  2074.641
 281  2104.542
 282  2050.599
 283  2007.858
 284  2043.397
 285  2040.686
 286  2043.056
 287  1995.492
 288  1866.879
 289  1883.853
 290  1905.214
 291  1917.734
 292  1835.501
 293  1811.295
 294  1790.409
 295  1831.17
 296  1863.542
 297  1943.002
 298  1905.302
 299  1891.911
 300  1866.856
 301  1963.061
 302  1900.539
 303  1888.33
 304  1750.237
 305  1762.88
 306  1785.482
 307  1993.275
 308  2033.952
 309  2017.305
 310  1893.534
 311  1774.355
 312  1703.516
 313  1622.054
 314  1606.038
 315  1657.972
 316  1600.607
 317  1627.785
 318  1585.378
 319  1781.717
 320  1784.153
 321  1771.56
 322  1817.579
 323  1957.76
 324  1952.919
 325  1702.896
 326  1591.141
 327  1415.493
 328  1437.797
 329  1470.759
 330  1580.714
 331  1651.342
 332  1649.539
 333  1651.067
 334  1646.663
 335  1758.62
 336  1855.505
 337  1923.755
 338  1813.596
 339  1938.996
 340  1996.948
 341  2038.229
 342  1939.297
 343  1887.636
 344  1887.37
 345  1899.761
 346  1924.343
 347  2032.523
 348  1959.126
 349  1948.132
 350  1868.586
 351  1922.621
 352  1922.997
 353  1944.127
 354  1877.366
 355  1807.738
 356  1850.438
 357  1884.881
 358  1955.48
 359  1766.677
 360  1734.995
 361  1643.294
 362  1674.976
 363  1644.17
 364  1828.01
 365  1893.56
 366  1874.043
 367  1919.753
 368  2036.453
 369  2064.281
 370  2022.375
 371  1998.038
 372  2062.001
 373  2030.811
 374  1864.052
 375  1709.532
 376  1788.542
 377  1820.653
 378  1801.174
 379  1808.511
 380  1926.416
 381  1998.99
 382  2051.164
 383  2057.983
 384  1965.955
 385  1948.535
 386  1890.429
 387  2008.63
 388  1875.169
 389  1873.994
 390  1826.813
 391  1957.277
 392  2052.418
 393  2087.703
 394  1986.143
 395  1985.304
 396  1872.537
 397  1791.737
 398  1661.721
 399  1670.472
 400  1668.701
 401  1619.646
 402  1628.09
 403  1745.681
 404  1988.626
 405  2079.539
 406  1990.582
 407  1873.685
 408  1825.387
 409  1769.246
 410  1867.903
 411  1954.784
 412  1986.529
 413  1946.871
 414  1850.498
 415  1835.823
 416  1742.442
 417  1676.292
 418  1786.246
 419  1899.737
 420  1925.221
 421  1770.678
 422  1886.024
 423  2078.057
 424  2167.565
 425  2225.375
 426  2172.12
 427  2047.63
 428  1908.517
 429  1789.279
 430  1674.601
 431  1686.17
 432  1797.636
 433  1931.002
 434  1959.39
 435  2027.04
 436  2087.05
 437  2196.304
 438  2193.948
 439  2185.371
 440  2117.493
 441  2012.031
 442  1977.169
 443  1856.594
 444  1859.884
 445  1876.932
 446  1921.102
 447  1941.538
 448  1944.025
 449  1930.586
 450  1952.746
 451  2030.102
 452  2016.597
 453  2014.646
 454  1922.973
 455  1866.173
 456  1849.39
 457  1823.645
 458  1838.967
 459  1829.899
 460  1935.618
 461  1928.104
 462  1964.444
 463  1891.657
 464  2007.858
 465  1882.836
 466  1912.323
 467  1832.362
 468  1801.196
 469  1787.168
 470  1791.126
 471  1804.744
 472  1658.269
 473  1639.633
 474  1685.184
 475  1699.729
 476  1727.803
 477  1776.511
 478  1816.06
 479  1746.374
 480  1638.897
 481  1541.103
 482  1468.77
 483  1586.253
 484  1610.658
 485  1708.615
 486  1664.427
 487  1613.008
 488  1594.755
 489  1587.637
 490  1718.246
 491  1703.597
 492  1648.841
 493  1534.667
 494  1532.541
 495  1569.755
 496  1521.749
 497  1465.876
 498  1476.966
 499  1414.395
 500  1569.548
 501  1651.22
 502  1701.622
 503  1724.185
 504  1784.12
 505  1894.341
 506  1859
 507  1860.269
 508  1818.511
 509  1955.69
 510  2095.594
 511  2034.444
 512  1962.977
 513  1815.063
 514  1760.556
 515  1843.758
 516  1996.847
 517  2101.654
 518  2082.144
 519  2112.292
 520  2172.05
 521  2080.195
 522  2067.465
 523  1934.818
 524  1893.602
 525  1932.328
 526  2053.09
 527  2197.152
 528  2251.087
 529  2205.034
 530  2061.956
 531  2067.548
 532  2065.838
 533  2088.117
 534  2027.233
 535  1908.087
 536  2040.619
 537  2153.111
 538  2172.328
 539  2112.612
 540  2031.122
 541  2104.303
 542  2120.634
 543  2168.215
 544  2061.646
 545  1970.133
 546  2013.997
 547  2040.749
 548  2006.9
 549  1792.832
 550  1659.422
 551  1756.514
 552  1973.088
 553  2148.689
 554  2012.752
 555  1879.429
 556  1741.534
 557  1779.342
 558  1742.376
 559  1692.978
 560  1703.932
 561  1599.997
 562  1472.056
 563  1517.262
 564  1682.019
 565  1824.342
 566  1892.95
 567  1938.378
 568  1963.248
 569  1913.64
 570  1879.45
 571  1756.853
 572  1750.216
 573  1706.044
 574  1767.059
 575  1755.648
 576  1701.975
 577  1597.7
 578  1539.298
 579  1580.276
 580  1690.428
 581  1663.196
 582  1683.787
 583  1768.926
 584  1928.56
 585  1974.771
 586  1878.008
 587  1792.074
 588  1797.724
 589  1799.105
 590  1939.665
 591  2024.724
 592  2100.353
 593  2126.704
 594  2081.734
 595  2286.714
 596  2459.927
 597  2609.325
 598  2597.7
 599  2689.833
 600  2755.93
 601  2707.044
 602  2512.854
 603  2334.685
 604  2196.363
 605  2182.625
 606  2101.456
 607  1969.839
 608  1884.237
 609  1778.289
 610  1796.489
 611  1865.941
 612  1936.849
 613  1948.541
 614  1893.904
 615  1801.423
 616  1601.122
 617  1523.11
 618  1483.076
 619  1506.329
 620  1674.17
 621  1742.455
 622  1766.569
 623  1686.324
 624  1698.565
 625  1666.111
 626  1675.734
 627  1704.967
 628  1710.24
 629  1680.287
 630  1596.709
 631  1552.18
 632  1511.481
 633  1592.316
 634  1626.099
 635  1668.396
 636  1674.458
 637  1696.076
 638  1673.506
 639  1677.567
 640  1646.474
 641  1754.468
 642  1680.569
 643  1715.185
 644  1651.186
 645  1730.161
 646  1722.491
 647  1803.249
 648  1780.38
 649  1681.413
 650  1582.628
 651  1503.292
 652  1598.219
 653  1710.876
 654  1896.283
 655  2019.543
 656  1870.557
 657  1715.867
 658  1590.531
 659  1619.051
 660  1530.122
 661  1604.272
 662  1682.622
 663  1767.657
 664  1781.307
 665  1833.838
 666  1686.806
 667  1571.43
 668  1543.128
 669  1680.78
 670  1800.369
 671  1723.325
 672  1733.296
 673  1665.563
 674  1782.132
 675  1847.734
 676  1892.404
 677  1848.135
 678  1786.132
 679  1788.907
 680  1708.593
 681  1643.009
 682  1533.278
 683  1490.231
 684  1505.292
 685  1614.676
 686  1714.7
 687  1809.242
 688  1709.668
 689  1748.416
 690  1810.016
 691  1891.021
 692  1822.053
 693  1823.647
 694  1747.062
 695  1709.801
 696  1596.616
 697  1634.464
 698  1765.526
 699  1850.489
 700  1862.352
 701  1831.725
 702  1969.773
 703  2066.397
 704  2049.815
 705  1955.504
 706  1902.311
 707  1867.829
 708  1885.857
 709  1743.05
 710  1668.48
 711  1702.978
 712  1835.009
 713  1902.838
 714  1976.156
 715  1966.864
 716  1812.017
 717  1671.143
 718  1688.012
 719  1707.026
 720  1656.659
 721  1549.795
 722  1598.56
 723  1672.746
 724  1750.144
 725  1623.02
 726  1574.394
 727  1524.199
 728  1668.282
 729  1689.291
 730  1794.558
 731  1661.234
 732  1667.476
 733  1608.436
 734  1630.677
 735  1608.787
 736  1598.624
 737  1585.745
 738  1587.094
 739  1691.956
 740  1804.48
 741  1727.19
 742  1778.665
 743  1755.772
 744  1745.038
 745  1638.156
 746  1675.637
 747  1672.181
 748  1670.176
 749  1563.817
 750  1663.612
 751  1789.804
 752  1921.234
 753  2073.375
 754  2006.329
 755  1894.816
 756  1691.001
 757  1656.253
 758  1669.531
 759  1742.322
 760  1713.461
 761  1692.518
 762  1653.737
 763  1732.36
 764  1800.682
 765  1801.831
 766  1787.816
 767  1799.806
 768  1853.235
 769  1813.843
 770  1779.893
 771  1665.999
 772  1677.945
 773  1626.396
 774  1570.629
 775  1492.698
 776  1458.099
 777  1620.875
 778  1772.609
 779  1832.551
 780  1706.451
 781  1561.902
 782  1397.201
 783  1341.005
 784  1412.974
 785  1578.229
 786  1668.321
 787  1778.099
 788  1762.874
 789  1758.201
 790  1572.041
 791  1534.409
 792  1384.955
 793  1398.75
 794  1492.899
 795  1717.371
 796  1812.764
 797  1799.199
 798  1722.209
 799  1868.4
 800  1896.529
 801  1913.024
 802  1895.823
 803  1866.879
 804  1823.346
 805  1702.286
 806  1781.032
 807  1744.097
 808  1737.932
 809  1523.355
 810  1540.398
 811  1611.508
 812  1567.723
 813  1572.152
 814  1594.89
 815  1631.21
 816  1662.983
 817  1647.005
 818  1731.908
 819  1643.917
 820  1688.072
 821  1649.398
 822  1620.653
 823  1541.471
 824  1552.998
 825  1471.769
 826  1429.748
 827  1376.062
 828  1418.336
 829  1394.167
 830  1366.904
 831  1478.661
 832  1658.359
 833  1719.26
 834  1583.187
 835  1473.163
 836  1573.168
 837  1518.422
 838  1480.207
 839  1503.397
 840  1448.744
 841  1469.174
 842  1437.448
 843  1541.19
 844  1528.919
 845  1426.875
 846  1459.729
 847  1436.291
 848  1532.507
 849  1624.819
 850  1731.651
 851  1720.13
 852  1698.064
 853  1698.725
 854  1671.317
 855  1698.866
 856  1703.948
 857  1628.503
 858  1486.59
 859  1610.651
 860  1550.389
 861  1534.937
 862  1471.841
 863  1575.827
 864  1663.67
 865  1649.626
 866  1757.854
 867  1702.25
 868  1723.768
 869  1865.951
 870  1890.125
 871  1826.958
 872  1751.41
 873  1867.468
 874  1872.433
 875  1840.003
 876  1684.407
 877  1725.623
 878  1754.713
 879  1844.761
 880  1813.913
 881  1780.965
 882  1695.692
 883  1673.86
 884  1542.034
 885  1586.211
 886  1706.509
 887  1777.661
 888  1722.006
 889  1683.653
 890  1611.002
 891  1670.512
 892  1546.715
 893  1585.366
 894  1599.907
 895  1715.282
 896  1656.071
 897  1634.729
 898  1695.528
 899  1765.889
 900  1780.18
 901  1689.835
 902  1666.053
 903  1683.375
 904  1711.825
 905  1639.697
 906  1616.234
 907  1697.813
 908  1684.031
 909  1602.779
 910  1508.889
 911  1470.456
 912  1485.127
 913  1485.421
 914  1487.699
 915  1620.048
 916  1686.206
 917  1663.999
 918  1692.274
 919  1693.277
 920  1901.215
 921  1908.836
 922  1852.995
 923  1820.024
 924  1853.486
 925  1839.012
 926  1868.551
 927  1721.604
 928  1683.679
 929  1750.315
 930  1820.35
 931  1925.141
 932  1882.74
 933  1847.258
 934  1787.928
 935  1765.704
 936  1801.763
 937  1695.807
 938  1668.031
 939  1587.971
 940  1632.012
 941  1593.509
 942  1662.695
 943  1747.109
 944  1727.01
 945  1762.094
 946  1681.532
 947  1666.234
 948  1594.391
 949  1655.068
 950  1939.313
 951  2091.569
 952  2098.8
 953  1902.2
 954  1861.694
 955  1823.503
 956  1814.82
 957  1690.71
 958  1672.995
 959  1657.634
 960  1712.001
 961  1664.536
 962  1718.913
 963  1830.509
 964  1933.656
 965  1966.427
 966  1973.461
 967  1876.173
 968  1733.574
 969  1764.252
 970  1808.296
 971  1800.421
 972  1831.438
 973  1798.508
 974  1854.924
 975  1790.891
 976  1690.443
 977  1640.074
 978  1461.78
 979  1425.48
 980  1388.112
 981  1539.463
 982  1497.39
 983  1469.412
 984  1490.134
 985  1488.578
 986  1491.284
 987  1384.416
 988  1390.969
 989  1411.908
 990  1356.386
 991  1369.664
 992  1328.984
 993  1330.442
 994  1367.927
 995  1338.568
 996  1333.038
 997  1399.339
 998  1464.038
 999  1611.014
1000  1669.144
1001  1832.62
1002  1782.553
1003  1674.18
1004  1748.075
1005  1726.548
1006  1675.793
1007  1644.212
1008  1582.745
1009  1628.694
1010  1622.829
1011  1757.478
1012  1657.485
1013  1729.148
1014  1558.943
1015  1565.923
1016  1537.707
1017  1565.538
1018  1413.196
1019  1371.218
1020  1530.541
1021  1552.525
1022  1506.633
1023  1648.422
