# Input file       =  1212202951.119541_cleaned.dat
# Candidate        =  PSR_0332+5434
# Telescope        =  AR
# Epoch_topo       =  58274.126968976168
# Epoch_bary       =  N/A
# T_sample         =  0.002
# Data Folded      =  7208960
# Data Avg         =  0.0516735778716067
# Data StdDev      =  1.00005779860108 
# Profile Bins     =  512
# Profile Avg      =  727.561567014251 
# Profile StdDev   =  118.666034127896 
# Reduced chi-sqr  =  2.024
# Prob(Noise)      <  9.53e-38   (~12.8 sigma)
# P_topo (ms)      =  714.512923914853  +/- 7.77e-05
# P'_topo (s/s)    =  -0                +/- 4.18e-11
# P''_topo (s/s^2) =  0                 +/- 1.88e-14
# P_bary (ms)      =  N/A
# P'_bary (s/s)    =  N/A
# P''_bary (s/s^2) =  N/A
# P_orb (s)        =  N/A
# asin(i)/c (s)    =  N/A
# eccentricity     =  N/A
# w (rad)          =  N/A
# T_peri           =  N/A
######################################################
   0  1316.895
   1  1234.514
   2  1070.827
   3  849.319
   4  806.2379
   5  922.5966
   6  825.8627
   7  765.5659
   8  779.1225
   9  676.8834
  10  646.605
  11  837.5221
  12  858.0934
  13  1013.009
  14  1083.724
  15  937.8035
  16  756.3005
  17  834.727
  18  864.7288
  19  826.3878
  20  881.9884
  21  894.9995
  22  824.1979
  23  762.1942
  24  724.1637
  25  729.9836
  26  767.1804
  27  827.0292
  28  701.2981
  29  713.9559
  30  869.6257
  31  865.5349
  32  900.6948
  33  812.4154
  34  839.8427
  35  745.2135
  36  806.4854
  37  822.888
  38  750.9592
  39  710.8626
  40  747.4037
  41  850.0286
  42  808.9951
  43  762.1674
  44  808.5461
  45  937.2018
  46  953.7991
  47  877.3597
  48  831.6407
  49  933.357
  50  801.8057
  51  745.5327
  52  859.8814
  53  770.7756
  54  745.7864
  55  794.3869
  56  948.1817
  57  794.1252
  58  789.5721
  59  760.1553
  60  737.2507
  61  830.4084
  62  967.707
  63  923.0704
  64  913.0706
  65  830.7773
  66  860.4929
  67  820.4858
  68  882.1598
  69  873.1758
  70  945.9573
  71  944.8053
  72  886.295
  73  774.4485
  74  845.4126
  75  736.006
  76  656.0073
  77  766.9971
  78  959.1757
  79  989.9783
  80  1083.513
  81  1084.227
  82  937.84
  83  902.1916
  84  924.6276
  85  943.6423
  86  837.9169
  87  784.0594
  88  782.6981
  89  772.717
  90  734.2581
  91  711.2618
  92  754.1347
  93  844.2013
  94  726.4918
  95  700.5572
  96  672.3097
  97  813.0749
  98  924.4681
  99  770.4978
 100  673.941
 101  798.9128
 102  835.9498
 103  728.0616
 104  789.2899
 105  834.0642
 106  813.7346
 107  743.3345
 108  667.0182
 109  655.8809
 110  717.1669
 111  745.4854
 112  799.3668
 113  711.8834
 114  645.2191
 115  785.4591
 116  786.5879
 117  631.6709
 118  703.1716
 119  724.6053
 120  673.0227
 121  702.0762
 122  642.4726
 123  751.2087
 124  640.9876
 125  711.5502
 126  758.0369
 127  632.1792
 128  580.2468
 129  672.3826
 130  768.6921
 131  739.7635
 132  669.8769
 133  837.7674
 134  884.1591
 135  751.1307
 136  770.0974
 137  736.1711
 138  680.6226
 139  708.8174
 140  797.6342
 141  768.7083
 142  771.2029
 143  672.4667
 144  780.9767
 145  794.9805
 146  774.0904
 147  750.4672
 148  841.0112
 149  792.0709
 150  741.6808
 151  707.9738
 152  756.0152
 153  783.7803
 154  734.3778
 155  770.5886
 156  870.1472
 157  849.5328
 158  768.4137
 159  792.1537
 160  785.8774
 161  761.5209
 162  835.8549
 163  851.8066
 164  847.3483
 165  877.9524
 166  785.0086
 167  712.4819
 168  658.2943
 169  768.386
 170  772.0956
 171  787.8808
 172  814.0144
 173  707.0484
 174  717.6667
 175  720.9472
 176  797.7408
 177  862.1273
 178  750.0996
 179  786.8265
 180  898.914
 181  759.2189
 182  693.3128
 183  678.1235
 184  672.5066
 185  732.6446
 186  786.4004
 187  704.1214
 188  623.4459
 189  655.6498
 190  567.1929
 191  562.551
 192  582.967
 193  689.0281
 194  705.3502
 195  696.9849
 196  733.7881
 197  727.8445
 198  748.7955
 199  730.4991
 200  674.0938
 201  601.4159
 202  651.7668
 203  671.6055
 204  629.7252
 205  515.2736
 206  547.8063
 207  581.6667
 208  577.8131
 209  576.3721
 210  508.3853
 211  605.6066
 212  644.6505
 213  709.3496
 214  710.9846
 215  688.4714
 216  722.0128
 217  707.5934
 218  753.7639
 219  650.3945
 220  554.1658
 221  577.5065
 222  614.7434
 223  575.1021
 224  565.2597
 225  600.7187
 226  738.6022
 227  740.691
 228  722.2504
 229  763.0237
 230  753.9608
 231  564.5691
 232  510.9402
 233  701.3883
 234  709.8786
 235  666.9249
 236  689.8505
 237  734.3088
 238  615.7489
 239  414.6861
 240  397.6224
 241  516.3149
 242  622.752
 243  676.9229
 244  714.9611
 245  838.8123
 246  749.3309
 247  516.0843
 248  652.3497
 249  654.4367
 250  692.5817
 251  703.4532
 252  642.5185
 253  624.163
 254  614.3495
 255  590.2502
 256  559.7207
 257  495.7217
 258  600.1366
 259  779.1371
 260  704.4381
 261  672.3058
 262  761.4704
 263  715.7645
 264  678.9235
 265  668.8793
 266  746.6232
 267  581.2632
 268  562.6696
 269  682.7463
 270  595.9653
 271  587.9166
 272  468.5512
 273  451.4079
 274  638.6428
 275  582.2537
 276  648.4565
 277  704.4943
 278  754.3123
 279  717.6327
 280  705.2193
 281  694.6766
 282  538.0303
 283  581.6066
 284  703.4265
 285  587.3912
 286  678.6807
 287  641.4869
 288  526.178
 289  667.6792
 290  677.8691
 291  550.4407
 292  493.9081
 293  700.8522
 294  767.4855
 295  752.7218
 296  811.9278
 297  694.7133
 298  583.3882
 299  620.5172
 300  543.1777
 301  577.6465
 302  606.8793
 303  729.9616
 304  813.2277
 305  793.0745
 306  613.0927
 307  576.5372
 308  640.1519
 309  568.3224
 310  629.8989
 311  742.0463
 312  690.7026
 313  782.9955
 314  686.1736
 315  617.1981
 316  566.2457
 317  623.571
 318  623.0616
 319  718.6908
 320  670.6686
 321  675.6735
 322  545.7912
 323  448.219
 324  479.9764
 325  545.5151
 326  677.6046
 327  678.7247
 328  595.0692
 329  692.3549
 330  598.1391
 331  636.662
 332  714.524
 333  618.7759
 334  612.1619
 335  732.1906
 336  721.2521
 337  693.9217
 338  588.4771
 339  566.7148
 340  579.9439
 341  499.3795
 342  646.6503
 343  728.3721
 344  760.2949
 345  717.8434
 346  744.7598
 347  611.0111
 348  581.7094
 349  559.2369
 350  616.1035
 351  644.4802
 352  740.3121
 353  720.576
 354  650.2972
 355  603.3505
 356  636.4078
 357  632.4377
 358  602.9946
 359  634.7678
 360  782.9226
 361  880.5006
 362  734.1744
 363  627.5643
 364  775.8047
 365  729.7195
 366  575.0697
 367  545.8818
 368  694.66
 369  741.609
 370  645.8223
 371  668.3802
 372  576.9243
 373  633.0287
 374  670.6838
 375  663.8701
 376  676.6221
 377  778.5341
 378  719.5745
 379  718.6357
 380  754.3613
 381  718.8929
 382  670.0843
 383  619.9177
 384  713.7469
 385  668.1603
 386  744.8337
 387  698.7155
 388  516.4966
 389  550.5162
 390  643.1648
 391  706.8319
 392  756.0327
 393  755.1588
 394  766.0789
 395  801.296
 396  769.2123
 397  687.4617
 398  631.5524
 399  713.7161
 400  746.7811
 401  821.3873
 402  767.6356
 403  708.9161
 404  679.3741
 405  564.9989
 406  632.8123
 407  692.071
 408  709.2421
 409  750.648
 410  771.7294
 411  832.6613
 412  737.4736
 413  749.3381
 414  719.4636
 415  674.0776
 416  754.3405
 417  829.9991
 418  774.8653
 419  667.3484
 420  637.4837
 421  686.4741
 422  658.5771
 423  681.8688
 424  664.8774
 425  779.0186
 426  841.6904
 427  821.5836
 428  954.8696
 429  874.4753
 430  656.6573
 431  734.2228
 432  793.0366
 433  820.8192
 434  681.869
 435  769.1234
 436  738.6793
 437  673.5371
 438  553.2438
 439  552.5634
 440  734.2476
 441  714.5307
 442  603.1729
 443  681.801
 444  707.422
 445  712.0351
 446  753.4601
 447  835.58
 448  754.5199
 449  685.3503
 450  613.7853
 451  708.1555
 452  653.3967
 453  556.5938
 454  581.1751
 455  727.1475
 456  628.9171
 457  543.6994
 458  693.8718
 459  741.4965
 460  866.1717
 461  793.0201
 462  690.6376
 463  611.6132
 464  613.3499
 465  667.6262
 466  774.3918
 467  731.9122
 468  811.629
 469  682.9456
 470  672.7918
 471  651.9963
 472  606.9016
 473  641.7294
 474  673.2067
 475  717.327
 476  816.052
 477  774.594
 478  704.5977
 479  828.0335
 480  796.5884
 481  699.3806
 482  641.6221
 483  671.4146
 484  677.3551
 485  768.962
 486  810.8273
 487  706.9552
 488  707.1807
 489  696.819
 490  711.5876
 491  654.3926
 492  780.4146
 493  906.0115
 494  859.7017
 495  940.174
 496  905.0995
 497  833.8131
 498  779.9501
 499  733.1015
 500  803.3421
 501  1002.51
 502  864.9019
 503  747.9036
 504  664.1296
 505  710.7748
 506  686.1152
 507  828.3657
 508  1071.554
 509  1249.887
 510  1402.568
 511  1319.611
