# Input file       =  1212562175.108889_cleaned.dat
# Candidate        =  PSR_0332+5434
# Telescope        =  AR
# Epoch_topo       =  58278.284654038071
# Epoch_bary       =  N/A
# T_sample         =  0.002
# Data Folded      =  7340032
# Data Avg         =  0.10428213733186 
# Data StdDev      =  2.93257713286233 
# Profile Bins     =  512
# Profile Avg      =  1495.06928175338 
# Profile StdDev   =  351.126364526677 
# Reduced chi-sqr  =  1.023
# Prob(Noise)      <  0.348   (~0.4 sigma)
# P_topo (ms)      =  714.508932484829  +/- 0.000509
# P'_topo (s/s)    =  -0                +/- 2.69e-10
# P''_topo (s/s^2) =  0                 +/- 1.19e-13
# P_bary (ms)      =  N/A
# P'_bary (s/s)    =  N/A
# P''_bary (s/s^2) =  N/A
# P_orb (s)        =  N/A
# asin(i)/c (s)    =  N/A
# eccentricity     =  N/A
# w (rad)          =  N/A
# T_peri           =  N/A
######################################################
   0  1787.403
   1  1623.633
   2  1449.35
   3  1348.169
   4  1679.468
   5  1358.941
   6  1190.946
   7  1477.843
   8  1330.351
   9  1339.548
  10  1612.127
  11  1658.894
  12  1558.792
  13  1729.23
  14  1895.886
  15  1790.641
  16  1549.699
  17  1527.908
  18  1462.752
  19  1541.188
  20  1620.063
  21  1676.225
  22  1651.436
  23  1677.788
  24  1868.149
  25  1726.074
  26  1723.271
  27  1544.205
  28  1557.133
  29  1686.551
  30  1769.095
  31  1828.244
  32  1451.383
  33  1566.824
  34  1816.273
  35  1633.82
  36  1386.263
  37  1220.94
  38  1368.613
  39  1380.38
  40  1295.188
  41  1459.747
  42  1374.42
  43  1623.312
  44  1471.313
  45  1396.146
  46  1652.005
  47  1811.623
  48  1950.592
  49  1546.212
  50  1558.267
  51  1421.022
  52  1185.503
  53  1436.03
  54  1536.147
  55  1548.782
  56  1950.069
  57  1653.706
  58  1598.303
  59  1510.56
  60  1781.963
  61  1304.529
  62  1163.478
  63  1450.571
  64  1913.778
  65  1767.916
  66  1529.718
  67  1338.076
  68  1201.495
  69  1195.153
  70  1239.412
  71  1477.123
  72  1358.04
  73  1467.496
  74  1427.178
  75  1658.701
  76  1610.832
  77  1693.433
  78  1697.225
  79  1437.142
  80  1418.605
  81  1370.087
  82  1293.191
  83  1415.411
  84  1451.818
  85  1526.665
  86  1312.265
  87  1274.946
  88  1122.655
  89  1221.541
  90  1192.729
  91  1344.657
  92  1314.761
  93  1266.883
  94  1217.549
  95  1731.778
  96  1667.237
  97  1413.03
  98  1220.21
  99  1257.264
 100  1202.106
 101  1335.306
 102  1317.171
 103  1698.22
 104  1400.362
 105  1239.567
 106  1295.592
 107  1551.717
 108  1493.383
 109  1303.945
 110  1244.299
 111  1354.135
 112  1446.518
 113  1474.708
 114  1630.22
 115  1433.72
 116  1455.182
 117  1428.546
 118  1516.572
 119  1583.182
 120  1369.812
 121  1308.089
 122  1125.233
 123  1118.649
 124  1494.098
 125  1130.377
 126  1071.033
 127  1107.479
 128  1316.015
 129  1377.539
 130  1209.448
 131  1315.689
 132  1321.039
 133  1201.056
 134  1093.004
 135  1197.842
 136  1514.344
 137  1314.3
 138  1007.379
 139  1044.802
 140  1110.716
 141  1231.607
 142  1341.511
 143  1542.944
 144  1622.803
 145  1475.379
 146  1494.863
 147  1440.872
 148  1596.843
 149  1453.869
 150  1563.145
 151  1255.834
 152  1263.781
 153  1486.091
 154  1325.931
 155  1524.623
 156  1531.278
 157  1496.978
 158  1761.865
 159  1727.839
 160  1514.451
 161  1478.064
 162  1251.704
 163  1312.169
 164  1330.856
 165  1172.695
 166  1290.311
 167  1312.508
 168  1418.926
 169  1394.048
 170  1300.524
 171  1762.967
 172  1993.184
 173  1659.299
 174  1342.705
 175  1368.713
 176  1475.787
 177  1574.147
 178  1349.118
 179  1640.178
 180  1787.508
 181  1592.175
 182  1555.235
 183  1608.409
 184  1244.5
 185  1572.98
 186  1525.436
 187  1530.877
 188  1582.593
 189  1349.317
 190  1363.868
 191  1259.704
 192  1369.972
 193  1245.066
 194  1462.459
 195  1352.346
 196  1470.169
 197  1603.834
 198  1418.845
 199  1381.166
 200  1229.293
 201  1054.512
 202  1416.323
 203  1419.838
 204  1496.664
 205  1363.775
 206  1569.857
 207  1626.989
 208  1154.805
 209  1258.742
 210  1610.28
 211  1668.561
 212  1239.502
 213  1047.183
 214  1213.69
 215  1400.143
 216  1142.411
 217  1322.747
 218  1277.933
 219  1715.667
 220  1781.607
 221  1778.22
 222  1529.128
 223  1411.43
 224  1517.14
 225  1378.092
 226  1380.298
 227  1577.793
 228  1700.114
 229  1352.264
 230  1309.475
 231  1316.629
 232  1465.601
 233  1356.35
 234  1188.831
 235  1226.267
 236  1178.118
 237  1175.543
 238  1505.762
 239  1412.74
 240  1131.87
 241  1269.688
 242  1330.765
 243  1447.633
 244  1471.789
 245  1425.694
 246  1462.885
 247  1161.213
 248  1220.662
 249  1239.772
 250  931.745
 251  888.8018
 252  1110.897
 253  1479.643
 254  1799.485
 255  1667.77
 256  1069.845
 257  1274.132
 258  1315.483
 259  1473.324
 260  1482.953
 261  1543.289
 262  1525.618
 263  1602.948
 264  1439.059
 265  1192.739
 266  1299.863
 267  1678.699
 268  1648.49
 269  1310.707
 270  1651.901
 271  1573.835
 272  1648.636
 273  1890.376
 274  1998.839
 275  1848.533
 276  1415.438
 277  1583.892
 278  1450.058
 279  1432.322
 280  1662.646
 281  1504.838
 282  1457.466
 283  1437.929
 284  1887.15
 285  2201.607
 286  2157.014
 287  2628.056
 288  2721.534
 289  3351.776
 290  3067.786
 291  2703.738
 292  2544.252
 293  2076.719
 294  1916.416
 295  2104.141
 296  1988.354
 297  1685.73
 298  1643.859
 299  1571.118
 300  1554.121
 301  1450.777
 302  1713.176
 303  1550.765
 304  1530.205
 305  1728.044
 306  1726.811
 307  1596.546
 308  1191.777
 309  1339.837
 310  1728.372
 311  1786.612
 312  1690.421
 313  1739.051
 314  1531.536
 315  1622.034
 316  1440.819
 317  1521.754
 318  1908.311
 319  1680.165
 320  1623.192
 321  1912.02
 322  1685.882
 323  1690.771
 324  1588.365
 325  1504.231
 326  1302.858
 327  1527.349
 328  1726.107
 329  1766.417
 330  1808.551
 331  1502.972
 332  1459.392
 333  1437.572
 334  1451.858
 335  1551.25
 336  1548.549
 337  1603.283
 338  1331.231
 339  1656.758
 340  1799.005
 341  1584.925
 342  1222.57
 343  1434.844
 344  1776.792
 345  1838.501
 346  1690.546
 347  1444.995
 348  1535.005
 349  1602.683
 350  1345.042
 351  1134.96
 352  1710.575
 353  2102.878
 354  1771.777
 355  1441.069
 356  1520.261
 357  1542.423
 358  1508.405
 359  1451.734
 360  1328.24
 361  1546.771
 362  1767.814
 363  1708.748
 364  1743.13
 365  1394.13
 366  1537.464
 367  1693.494
 368  1640.479
 369  1547.836
 370  1452.703
 371  1211.663
 372  1618.348
 373  1803.586
 374  1732.625
 375  1232.302
 376  1087.481
 377  1112.538
 378  1200.28
 379  1438.059
 380  1795.691
 381  1690.376
 382  1526.325
 383  1520.164
 384  1378.282
 385  1375.137
 386  1386.911
 387  1560.077
 388  1337.34
 389  1398.462
 390  1664.894
 391  1744.396
 392  1442.519
 393  1322.324
 394  1690.608
 395  1626.082
 396  1293.218
 397  983.9991
 398  916.0417
 399  1123.099
 400  1446.042
 401  1650.503
 402  1478.671
 403  1258.813
 404  1442.557
 405  1390.194
 406  1591.547
 407  1560.096
 408  1419.243
 409  1486.17
 410  1392.444
 411  1308.628
 412  1459.199
 413  1709.26
 414  1700.986
 415  1832.631
 416  1766.635
 417  1522.148
 418  1422.1
 419  1325.161
 420  1530.041
 421  1286.829
 422  1316.113
 423  1247.396
 424  1409.019
 425  1512.139
 426  1558.322
 427  1577.325
 428  1626.263
 429  1571.683
 430  1594.336
 431  1480.222
 432  1257.025
 433  1465.25
 434  1691.447
 435  1751.161
 436  1499.22
 437  1268.346
 438  1328.453
 439  1898.035
 440  2027.425
 441  1607.849
 442  1471.514
 443  1514.636
 444  1260.842
 445  1397.815
 446  1341.199
 447  1751.866
 448  1696.299
 449  1401.524
 450  1664.433
 451  1595.636
 452  1751.638
 453  1736.292
 454  1407.227
 455  1516.206
 456  1529.13
 457  1330.945
 458  1513.292
 459  1568.362
 460  1432.542
 461  1536.223
 462  1537.183
 463  1495.467
 464  1415.904
 465  1447.517
 466  1283.688
 467  1438.907
 468  1399.328
 469  1601.317
 470  1410.936
 471  988.2257
 472  1258.735
 473  1338.544
 474  1577.513
 475  1567.6
 476  1572.992
 477  1203.495
 478  1351.057
 479  1408.23
 480  1141.901
 481  1148.063
 482  1158.738
 483  1251.504
 484  1492.352
 485  1191.659
 486  1322.293
 487  1248.501
 488  1191.354
 489  1400.868
 490  1409.397
 491  1597.134
 492  1289.645
 493  1526.479
 494  1831.236
 495  1520.255
 496  1538.174
 497  1496.303
 498  1406.49
 499  1433.018
 500  1512.446
 501  1256.655
 502  1275.221
 503  1324.076
 504  1506.268
 505  1817.58
 506  1688.297
 507  1438.127
 508  1657.19
 509  1656.511
 510  1354.523
 511  1495.669
