# Input file       =  1212060153.117047_cleaned.dat
# Candidate        =  PSR_0332+5434
# Telescope        =  AR
# Epoch_topo       =  58272.474214317677
# Epoch_bary       =  N/A
# T_sample         =  0.002
# Data Folded      =  7340032
# Data Avg         =  0.0329124301029618
# Data StdDev      =  2.59413893284327 
# Profile Bins     =  512
# Profile Avg      =  471.768919002417 
# Profile StdDev   =  310.604131212509 
# Reduced chi-sqr  =  1.283
# Prob(Noise)      <  1.47e-05   (~4.2 sigma)
# P_topo (ms)      =  714.514871435217  +/- 0.000313
# P'_topo (s/s)    =  -0                +/- 1.65e-10
# P''_topo (s/s^2) =  0                 +/- 7.29e-14
# P_bary (ms)      =  N/A
# P'_bary (s/s)    =  N/A
# P''_bary (s/s^2) =  N/A
# P_orb (s)        =  N/A
# asin(i)/c (s)    =  N/A
# eccentricity     =  N/A
# w (rad)          =  N/A
# T_peri           =  N/A
######################################################
   0  1026.911
   1  685.7679
   2  632.839
   3  716.9601
   4  382.665
   5  346.3038
   6  767.058
   7  880.7059
   8  699.8176
   9  588.3803
  10  576.7151
  11  498.4716
  12  512.5072
  13  788.4256
  14  835.5106
  15  805.2141
  16  755.345
  17  610.6879
  18  497.4358
  19  651.53
  20  1035.656
  21  823.2147
  22  722.8348
  23  744.9249
  24  588.2509
  25  327.1511
  26  202.6291
  27  498.0703
  28  692.4949
  29  293.775
  30  662.7697
  31  391.5096
  32  517.4596
  33  881.0676
  34  1009.095
  35  568.9944
  36  231.8403
  37  350.511
  38  303.5823
  39  145.3033
  40  315.3373
  41  500.5628
  42  647.2392
  43  445.1286
  44  396.114
  45  423.2755
  46  625.7124
  47  542.6639
  48  463.7106
  49  642.0622
  50  520.3236
  51  524.6918
  52  263.5127
  53  495.1296
  54  628.5979
  55  425.6302
  56  505.6517
  57  298.5521
  58  437.4313
  59  577.2194
  60  552.7432
  61  447.5322
  62  257.5066
  63  282.8658
  64  492.9474
  65  812.1713
  66  477.7116
  67  186.4306
  68  538.0013
  69  302.1209
  70  158.7429
  71  93.9899
  72  454.7527
  73  339.1958
  74  210.8723
  75  215.8005
  76  285.8039
  77  570.3236
  78  563.7045
  79  611.1352
  80  424.0704
  81  690.1837
  82  794.1006
  83  363.4664
  84  286.0942
  85  459.5682
  86  222.0177
  87  271.0962
  88  289.9843
  89  230.6395
  90  441.2453
  91  472.4645
  92  75.72525
  93  116.6906
  94  289.2356
  95  238.063
  96  266.245
  97  404.5789
  98  654.7874
  99  437.0193
 100  204.5673
 101  517.2348
 102  632.1488
 103  550.9131
 104  408.0289
 105  260.8771
 106  582.2366
 107  434.2531
 108  305.7101
 109  92.38721
 110  192.218
 111  398.3507
 112  589.2652
 113  633.2383
 114  567.6435
 115  508.5751
 116  670.8054
 117  691.1926
 118  412.2973
 119  183.3135
 120  188.9358
 121  261.1717
 122  312.135
 123  331.1586
 124  530.4568
 125  532.8356
 126  647.226
 127  455.3753
 128  68.12682
 129  134.0641
 130  -105.6519
 131  435.436
 132  656.7635
 133  400.1829
 134  276.0829
 135  176.3549
 136  327.937
 137  219.8883
 138  66.40331
 139  547.8804
 140  575.3638
 141  659.823
 142  353.2954
 143  361.7167
 144  629.7843
 145  919.4396
 146  730.9745
 147  323.2927
 148  347.2547
 149  264.1804
 150  118.4122
 151  309.1399
 152  333.2696
 153  662.895
 154  671.2599
 155  409.9982
 156  438.8342
 157  416.8138
 158  311.1832
 159  277.1961
 160  666.6164
 161  835.1638
 162  464.0793
 163  168.4863
 164  667.8438
 165  777.1024
 166  585.2075
 167  703.0243
 168  646.4453
 169  527.5658
 170  605.8925
 171  595.6944
 172  766.0416
 173  564.8452
 174  688.4756
 175  715.5449
 176  633.3141
 177  673.4233
 178  687.9851
 179  499.4714
 180  350.7783
 181  368.341
 182  462.0587
 183  339.0124
 184  235.0205
 185  183.7837
 186  382.0981
 187  589.6534
 188  575.173
 189  365.5427
 190  405.8228
 191  338.2491
 192  400.9122
 193  216.1972
 194  539.2194
 195  526.3571
 196  576.1057
 197  582.3316
 198  468.6657
 199  128.7734
 200  197.3463
 201  490.2967
 202  675.4026
 203  807.6019
 204  794.0619
 205  650.3791
 206  345.9798
 207  669.8614
 208  531.8384
 209  228.925
 210  187.4507
 211  165.97
 212  583.2284
 213  860.1987
 214  332.4279
 215  -58.02023
 216  109.2486
 217  345.0928
 218  570.8156
 219  383.1968
 220  425.2367
 221  118.5848
 222  322.363
 223  445.0899
 224  -31.08361
 225  172.4516
 226  137.6869
 227  356.4908
 228  547.8323
 229  524.2629
 230  344.4281
 231  742.7425
 232  519.7675
 233  433.5263
 234  438.2241
 235  368.5685
 236  687.1793
 237  513.9423
 238  599.6563
 239  596.1354
 240  447.8658
 241  466.0645
 242  333.6913
 243  396.076
 244  660.0769
 245  620.2228
 246  698.2328
 247  550.8734
 248  477.3073
 249  251.3468
 250  93.66125
 251  278.565
 252  210.5
 253  169.7056
 254  170.4196
 255  588.8148
 256  279.6556
 257  447.9344
 258  569.9848
 259  528.7167
 260  620.5908
 261  496.6232
 262  392.6961
 263  354.9068
 264  432.4033
 265  452.7343
 266  439.1327
 267  510.4003
 268  467.1852
 269  605.466
 270  373.9658
 271  366.7057
 272  270.8008
 273  7.94051
 274  -4.902792
 275  384.0848
 276  629.45
 277  540.4896
 278  391.3529
 279  537.0996
 280  380.7422
 281  733.4047
 282  690.5201
 283  554.8325
 284  508.6672
 285  562.1285
 286  397.5208
 287  242.2886
 288  543.6026
 289  527.3022
 290  363.6273
 291  421.7377
 292  648.0233
 293  614.259
 294  859.9943
 295  1225.778
 296  1166.048
 297  1918.439
 298  1998.601
 299  1973.301
 300  1977.038
 301  1457.38
 302  1175.977
 303  767.0745
 304  571.7757
 305  512.1338
 306  355.0648
 307  134.5663
 308  272.0479
 309  230.2627
 310  285.8429
 311  642.0775
 312  387.0968
 313  785.1002
 314  651.4487
 315  794.9614
 316  541.8589
 317  298.0686
 318  329.6068
 319  576.6589
 320  642.1971
 321  517.194
 322  280.6974
 323  176.9801
 324  437.7901
 325  307.3722
 326  247.3917
 327  281.7531
 328  368.571
 329  831.9286
 330  893.0085
 331  509.3831
 332  270.0271
 333  494.9441
 334  459.7231
 335  148.5486
 336  308.4995
 337  433.2445
 338  303.2215
 339  584.4829
 340  344.1762
 341  308.6008
 342  463.9453
 343  504.5555
 344  92.17193
 345  99.4297
 346  373.3831
 347  358.5134
 348  298.3937
 349  458.0476
 350  532.283
 351  399.993
 352  438.8559
 353  331.9467
 354  330.5216
 355  357.8281
 356  289.669
 357  272.515
 358  610.7007
 359  317.7687
 360  380.488
 361  652.8962
 362  722.135
 363  469.3127
 364  549.164
 365  495.5251
 366  36.72931
 367  248.0715
 368  393.0733
 369  132.3367
 370  278.6142
 371  246.0294
 372  375.4716
 373  689.5717
 374  591.3966
 375  863.7114
 376  226.3737
 377  -134.4426
 378  151.5595
 379  115.3633
 380  225.784
 381  440.0092
 382  297.0093
 383  432.1944
 384  443.7211
 385  374.3687
 386  602.8584
 387  438.0518
 388  193.8618
 389  174.2798
 390  -20.07338
 391  327.0029
 392  227.315
 393  445.5874
 394  522.5792
 395  642.8958
 396  517.9407
 397  236.4301
 398  6.960425
 399  114.798
 400  540.0325
 401  105.92
 402  68.38854
 403  189.0392
 404  203.5691
 405  400.3636
 406  359.5671
 407  241.2952
 408  15.89845
 409  109.0276
 410  297.2168
 411  206.7117
 412  406.7305
 413  392.0919
 414  175.7742
 415  301.3741
 416  380.2227
 417  115.6939
 418  230.8866
 419  367.2733
 420  482.1711
 421  283.6749
 422  363.1843
 423  218.2889
 424  345.9225
 425  336.1219
 426  591.4258
 427  409.1934
 428  438.8509
 429  573.2538
 430  618.9772
 431  514.4124
 432  427.1541
 433  406.4033
 434  541.7887
 435  738.7953
 436  498.7977
 437  508.0197
 438  375.6253
 439  423.8655
 440  361.7961
 441  549.5585
 442  566.5878
 443  657.342
 444  397.2868
 445  413.9279
 446  739.2158
 447  642.4016
 448  464.1418
 449  300.1056
 450  298.9682
 451  337.4519
 452  306.3773
 453  415.6011
 454  384.3679
 455  612.4719
 456  518.4793
 457  493.1324
 458  507.2736
 459  797.4884
 460  663.0228
 461  647.0791
 462  539.5642
 463  815.8223
 464  850.5859
 465  357.3012
 466  553.4415
 467  615.9714
 468  364.0243
 469  379.3668
 470  474.6646
 471  527.9707
 472  364.5759
 473  442.5044
 474  408.0651
 475  433.4432
 476  446.6142
 477  558.3702
 478  563.1468
 479  616.1064
 480  485.0496
 481  637.1349
 482  438.097
 483  678.1172
 484  362.7018
 485  106.7392
 486  348.7936
 487  508.0409
 488  523.6447
 489  459.9848
 490  309.1272
 491  331.7222
 492  328.8142
 493  823.227
 494  782.9645
 495  627.7836
 496  676.5823
 497  693.8478
 498  548.2454
 499  358.2929
 500  725.3245
 501  1137.918
 502  947.6234
 503  719.3854
 504  1060.218
 505  893.6412
 506  639.1235
 507  940.2343
 508  841.0419
 509  875.2233
 510  629.1616
 511  862.9333
